timestamps,TP9,AF7,AF8,TP10
1741603769.990,-388.184,-381.836,-78.125,-455.566
1741603769.994,-1000.000,-1000.000,-107.422,-1000.000
1741603769.998,-802.246,-816.895,-116.699,-779.297
1741603770.002,496.094,477.539,-25.879,514.160
1741603770.006,999.512,999.512,40.527,999.512
1741603770.010,765.137,772.461,33.203,687.012
1741603770.014,-516.113,-511.230,-58.105,-599.609
1741603770.017,-1000.000,-1000.000,-106.934,-1000.000
1741603770.021,-741.211,-788.574,-58.105,-512.695
1741603770.025,635.254,572.266,4.883,778.320
1741603770.029,999.512,999.512,14.160,999.512
1741603770.033,-112.305,-62.500,-38.086,-247.559
1741603770.036,-1000.000,-1000.000,-98.633,-1000.000
1741603770.040,-842.773,-847.656,-123.535,-767.578
1741603770.044,513.672,529.785,-37.598,608.887
1741603770.048,999.512,999.512,59.570,999.512
1741603770.052,234.863,187.012,-31.250,5.859
1741603770.056,-1000.000,-1000.000,-112.305,-1000.000
1741603770.060,-924.805,-916.992,-84.473,-883.789
1741603770.063,590.820,605.957,31.250,623.047
1741603770.067,999.512,999.512,-16.602,999.512
1741603770.071,-292.480,-348.633,-164.062,-390.137
1741603770.075,-1000.000,-1000.000,-180.176,-1000.000
1741603770.079,-803.711,-798.340,-100.098,-602.539
1741603770.081,614.746,620.117,2.441,744.141
1741603770.085,999.512,999.512,-10.254,999.512
1741603770.089,-274.414,-287.598,-102.539,-325.195
1741603770.093,-1000.000,-1000.000,-89.844,-1000.000
1741603770.097,-813.965,-826.172,-81.543,-804.199
1741603770.101,484.375,467.285,-2.930,537.598
1741603770.105,999.512,999.512,62.500,999.512
1741603770.108,506.836,526.367,-61.035,178.711
1741603770.112,-866.211,-830.078,-192.383,-981.445
1741603770.116,-1000.000,-1000.000,-157.715,-989.258
1741603770.120,236.816,94.727,-29.297,305.664
1741603770.124,999.512,999.512,66.895,999.512
1741603770.081,614.746,620.117,2.441,744.141
1741603770.085,999.512,999.512,-10.254,999.512
1741603770.089,-274.414,-287.598,-102.539,-325.195
1741603770.093,-1000.000,-1000.000,-89.844,-1000.000
1741603770.097,-813.965,-826.172,-81.543,-804.199
1741603770.101,484.375,467.285,-2.930,537.598
1741603770.105,999.512,999.512,62.500,999.512
1741603770.108,506.836,526.367,-61.035,178.711
1741603770.112,-866.211,-830.078,-192.383,-981.445
1741603770.116,-1000.000,-1000.000,-157.715,-989.258
1741603770.120,236.816,94.727,-29.297,305.664
1741603770.124,999.512,999.512,66.895,999.512
1741603770.126,780.762,789.062,14.160,598.633
1741603770.130,-532.227,-543.457,-78.125,-704.102
1741603770.134,-1000.000,-1000.000,-94.238,-1000.000
1741603770.138,-352.539,-407.715,-44.434,-86.426
1741603770.142,861.816,819.336,10.742,956.543
1741603770.146,999.512,999.512,64.453,986.328
1741603770.150,168.457,380.859,48.340,-68.848
1741603770.153,-1000.000,-939.941,-65.430,-1000.000
1741603770.157,-979.492,-1000.000,-106.934,-892.090
1741603770.161,314.453,224.609,-51.270,417.480
1741603770.165,999.512,999.512,-7.324,999.512
1741603770.169,697.754,664.062,-23.926,479.492
1741603770.170,-705.566,-728.027,-106.445,-836.426
1741603770.174,-1000.000,-1000.000,-132.812,-1000.000
1741603770.178,163.574,78.125,-25.879,289.551
1741603770.182,999.512,999.512,58.594,999.512
1741603770.186,782.227,788.086,12.207,602.539
1741603770.190,-533.203,-549.805,-24.414,-680.176
1741603770.194,-1000.000,-1000.000,-46.875,-1000.000
1741603770.197,-739.258,-801.270,-83.984,-471.680
1741603770.201,686.035,624.512,20.996,821.777
1741603770.205,864.746,860.352,34.180,773.438
1741603770.209,-458.008,-494.629,-35.645,-517.578
1741603770.213,-1000.000,-1000.000,-105.469,-1000.000
1741603770.170,-705.566,-728.027,-106.445,-836.426
1741603770.174,-1000.000,-1000.000,-132.812,-1000.000
1741603770.178,163.574,78.125,-25.879,289.551
1741603770.182,999.512,999.512,58.594,999.512
1741603770.186,782.227,788.086,12.207,602.539
1741603770.190,-533.203,-549.805,-24.414,-680.176
1741603770.194,-1000.000,-1000.000,-46.875,-1000.000
1741603770.197,-739.258,-801.270,-83.984,-471.680
1741603770.201,686.035,624.512,20.996,821.777
1741603770.205,864.746,860.352,34.180,773.438
1741603770.209,-458.008,-494.629,-35.645,-517.578
1741603770.213,-1000.000,-1000.000,-105.469,-1000.000
1741603770.215,-829.102,-823.730,-82.520,-702.637
1741603770.219,502.930,494.141,42.480,645.996
1741603770.223,999.512,999.512,35.156,999.512
1741603770.227,299.316,374.512,-25.391,12.207
1741603770.231,-1000.000,-1000.000,-108.398,-1000.000
1741603770.235,-491.211,-167.969,7.812,-354.980
1741603770.239,999.512,999.512,103.027,999.512
1741603770.242,856.934,791.504,23.438,804.199
1741603770.246,-570.312,-560.059,-105.957,-652.344
1741603770.250,-1000.000,-1000.000,-122.070,-1000.000
1741603770.254,-527.344,-567.383,-35.156,-224.609
1741603770.258,880.371,835.449,48.340,975.586
1741603770.275,968.750,999.512,40.039,868.652
1741603770.279,-450.684,-369.629,-5.371,-518.066
1741603770.283,-1000.000,-1000.000,-69.824,-1000.000
1741603770.287,-766.113,-773.926,-56.152,-568.359
1741603770.291,555.176,537.109,64.453,711.914
1741603770.295,999.512,999.512,120.605,999.512
1741603770.299,251.465,385.254,24.902,5.859
1741603770.302,-1000.000,-971.191,-117.188,-1000.000
1741603770.306,-911.133,-961.914,-93.750,-861.816
1741603770.310,477.539,441.406,16.113,520.996
1741603770.314,999.512,999.512,67.383,999.512
1741603770.318,645.020,628.418,24.902,377.441
1741603770.320,-755.859,-746.582,-66.406,-885.254
1741603770.324,-1000.000,-1000.000,-104.004,-1000.000
1741603770.328,201.172,108.887,3.906,330.566
1741603770.332,999.512,999.512,134.766,999.512
1741603770.336,833.984,820.801,77.637,668.457
1741603770.340,-645.508,-681.152,-51.270,-762.207
1741603770.344,-1000.000,-1000.000,-32.715,-1000.000
1741603770.347,547.363,601.074,53.711,571.777
1741603770.351,999.512,999.512,26.855,999.512
1741603770.355,-188.965,-370.117,-80.566,-279.785
1741603770.359,-1000.000,-1000.000,-132.324,-1000.000
1741603770.363,-614.746,-406.250,-41.504,-379.883
1741603770.411,397.461,487.793,-42.480,57.617
1741603770.415,-961.914,-919.922,-104.492,-1000.000
1741603770.419,-978.516,-990.723,-124.023,-911.621
1741603770.423,429.688,451.172,-13.672,443.359
1741603770.427,999.512,999.512,37.598,999.512
1741603770.431,770.996,814.453,24.902,703.613
1741603770.435,-506.836,-439.453,-19.043,-571.289
1741603770.438,-1000.000,-1000.000,-82.031,-1000.000
1741603770.442,-699.707,-661.133,-60.059,-550.293
1741603770.446,740.234,771.973,-25.391,833.008
1741603770.450,999.512,999.512,-45.410,937.500
1741603770.454,-390.137,-408.691,-57.617,-498.047
1741603770.411,397.461,487.793,-42.480,57.617
1741603770.415,-961.914,-919.922,-104.492,-1000.000
1741603770.419,-978.516,-990.723,-124.023,-911.621
1741603770.423,429.688,451.172,-13.672,443.359
1741603770.427,999.512,999.512,37.598,999.512
1741603770.431,770.996,814.453,24.902,703.613
1741603770.435,-506.836,-439.453,-19.043,-571.289
1741603770.438,-1000.000,-1000.000,-82.031,-1000.000
1741603770.442,-699.707,-661.133,-60.059,-550.293
1741603770.446,740.234,771.973,-25.391,833.008
1741603770.450,999.512,999.512,-45.410,937.500
1741603770.454,-390.137,-408.691,-57.617,-498.047
1741603770.455,-1000.000,-1000.000,-87.402,-1000.000
1741603770.459,-807.129,-819.336,-58.105,-600.586
1741603770.463,597.168,571.289,60.547,749.512
1741603770.467,999.512,999.512,41.016,999.512
1741603770.471,-263.184,-205.078,-70.312,-357.910
1741603770.475,-1000.000,-1000.000,-78.125,-1000.000
1741603770.479,-833.984,-811.035,-62.988,-768.555
1741603770.482,520.020,558.105,12.207,625.977
1741603770.486,999.512,999.512,7.812,999.512
1741603770.490,-39.551,-92.285,-80.566,-255.859
1741603770.494,-1000.000,-1000.000,-125.977,-1000.000
1741603770.498,193.359,404.785,-15.137,226.562
1741603770.455,-1000.000,-1000.000,-87.402,-1000.000
1741603770.459,-807.129,-819.336,-58.105,-600.586
1741603770.463,597.168,571.289,60.547,749.512
1741603770.467,999.512,999.512,41.016,999.512
1741603770.471,-263.184,-205.078,-70.312,-357.910
1741603770.475,-1000.000,-1000.000,-78.125,-1000.000
1741603770.479,-833.984,-811.035,-62.988,-768.555
1741603770.482,520.020,558.105,12.207,625.977
1741603770.486,999.512,999.512,7.812,999.512
1741603770.490,-39.551,-92.285,-80.566,-255.859
1741603770.494,-1000.000,-1000.000,-125.977,-1000.000
1741603770.498,193.359,404.785,-15.137,226.562
1741603770.500,999.512,999.512,21.484,999.512
1741603770.504,699.219,655.273,-38.574,491.699
1741603770.508,-693.359,-707.031,-76.172,-815.430
1741603770.512,-1000.000,-1000.000,-91.309,-1000.000
1741603770.516,68.848,20.020,-22.949,169.922
1741603770.520,999.512,999.512,75.195,999.512
1741603770.524,829.590,860.352,60.547,801.758
1741603770.527,-494.629,-457.520,-76.172,-514.160
1741603770.531,-1000.000,-1000.000,-181.641,-1000.000
1741603770.535,-812.012,-816.895,-138.184,-708.008
1741603770.539,486.816,495.117,-32.227,615.723
1741603770.543,999.512,999.512,-9.277,999.512
1741603770.546,288.086,220.703,-76.660,46.875
1741603770.550,-1000.000,-1000.000,-113.281,-1000.000
1741603770.554,-938.965,-956.543,-112.305,-883.301
1741603770.558,475.586,434.082,-14.648,492.188
1741603770.562,999.512,999.512,36.133,999.512
1741603770.566,855.957,889.648,57.129,815.918
1741603770.570,-372.070,-303.711,4.883,-432.129
1741603770.573,-1000.000,-1000.000,-146.973,-1000.000
1741603770.577,-811.035,-813.477,-146.973,-669.922
1741603770.581,487.305,492.188,-24.414,641.602
1741603770.585,999.512,999.512,15.137,999.512
1741603770.589,354.004,357.422,-52.246,77.637
1741603770.546,288.086,220.703,-76.660,46.875
1741603770.550,-1000.000,-1000.000,-113.281,-1000.000
1741603770.554,-938.965,-956.543,-112.305,-883.301
1741603770.558,475.586,434.082,-14.648,492.188
1741603770.562,999.512,999.512,36.133,999.512
1741603770.566,855.957,889.648,57.129,815.918
1741603770.570,-372.070,-303.711,4.883,-432.129
1741603770.573,-1000.000,-1000.000,-146.973,-1000.000
1741603770.577,-811.035,-813.477,-146.973,-669.922
1741603770.581,487.305,492.188,-24.414,641.602
1741603770.585,999.512,999.512,15.137,999.512
1741603770.589,354.004,357.422,-52.246,77.637
1741603770.590,-1000.000,-1000.000,-119.629,-1000.000
1741603770.594,-894.531,-894.043,-90.332,-772.949
1741603770.598,539.551,546.875,-7.324,621.094
1741603770.602,999.512,999.512,24.902,999.512
1741603770.606,729.980,776.367,0.000,468.750
1741603770.610,-751.465,-713.379,-97.168,-876.465
1741603770.614,-1000.000,-1000.000,-94.238,-969.238
1741603770.617,680.664,755.859,-4.883,711.914
1741603770.621,985.352,861.328,-88.867,927.734
1741603770.625,-655.762,-770.020,-179.199,-736.328
1741603770.629,-1000.000,-1000.000,-166.504,-1000.000
1741603770.633,185.547,155.762,-38.086,275.879
1741603770.652,999.512,999.512,44.922,999.512
1741603770.656,799.805,806.152,-12.695,678.223
1741603770.660,-544.434,-549.805,-89.355,-672.363
1741603770.664,-1000.000,-1000.000,-85.938,-1000.000
1741603770.668,-211.426,-175.293,-1.953,-0.488
1741603770.672,999.512,999.512,124.023,999.512
1741603770.676,865.234,903.320,73.242,774.902
1741603770.679,-506.348,-443.359,-89.355,-581.543
1741603770.683,-1000.000,-1000.000,-153.809,-1000.000
1741603770.687,-602.539,-523.438,-57.129,-383.301
1741603770.691,905.762,933.105,42.480,995.605
1741603770.695,833.008,826.172,6.836,744.629
1741603770.652,999.512,999.512,44.922,999.512
1741603770.656,799.805,806.152,-12.695,678.223
1741603770.660,-544.434,-549.805,-89.355,-672.363
1741603770.664,-1000.000,-1000.000,-85.938,-1000.000
1741603770.668,-211.426,-175.293,-1.953,-0.488
1741603770.672,999.512,999.512,124.023,999.512
1741603770.676,865.234,903.320,73.242,774.902
1741603770.679,-506.348,-443.359,-89.355,-581.543
1741603770.683,-1000.000,-1000.000,-153.809,-1000.000
1741603770.687,-602.539,-523.438,-57.129,-383.301
1741603770.691,905.762,933.105,42.480,995.605
1741603770.695,833.008,826.172,6.836,744.629
1741603770.695,334.473,378.906,41.504,269.043
1741603770.699,852.051,815.430,86.426,860.352
1741603770.703,-370.605,-438.965,-116.699,-393.066
1741603770.707,-1000.000,-1000.000,-148.438,-1000.000
1741603770.711,-600.098,-515.137,5.371,-432.129
1741603770.715,826.660,862.305,113.770,899.414
1741603770.719,999.512,999.512,76.660,925.781
1741603770.722,-409.180,-382.812,-68.848,-492.188
1741603770.726,-1000.000,-1000.000,-161.133,-1000.000
1741603770.730,-793.945,-802.734,-46.875,-595.703
1741603770.734,525.879,500.977,53.223,700.195
1741603770.738,999.512,999.512,9.277,999.512
1741603770.742,236.328,374.023,-38.086,-33.203
1741603770.746,-1000.000,-972.656,-73.730,-1000.000
1741603770.750,-943.359,-979.980,-41.504,-863.770
1741603770.754,464.844,472.656,19.531,500.488
1741603770.758,999.512,999.512,31.738,999.512
1741603770.762,904.297,960.449,91.309,849.609
1741603770.766,-265.625,-57.129,19.043,-356.445
1741603770.769,-1000.000,-1000.000,-116.211,-1000.000
1741603770.773,-817.871,-844.238,-91.309,-816.406
1741603770.777,467.285,467.773,77.637,522.461
1741603770.781,999.512,999.512,97.168,999.512
1741603770.785,560.059,595.215,-14.648,187.500
1741603770.742,236.328,374.023,-38.086,-33.203
1741603770.746,-1000.000,-972.656,-73.730,-1000.000
1741603770.750,-943.359,-979.980,-41.504,-863.770
1741603770.754,464.844,472.656,19.531,500.488
1741603770.758,999.512,999.512,31.738,999.512
1741603770.762,904.297,960.449,91.309,849.609
1741603770.766,-265.625,-57.129,19.043,-356.445
1741603770.769,-1000.000,-1000.000,-116.211,-1000.000
1741603770.773,-817.871,-844.238,-91.309,-816.406
1741603770.777,467.285,467.773,77.637,522.461
1741603770.781,999.512,999.512,97.168,999.512
1741603770.785,560.059,595.215,-14.648,187.500
1741603770.785,-871.582,-842.773,-84.961,-981.445
1741603770.789,-1000.000,-1000.000,-92.285,-971.680
1741603770.793,427.734,465.820,12.207,465.820
1741603770.797,999.512,999.512,27.832,999.512
1741603770.801,112.305,-130.859,-43.457,-29.785
1741603770.805,-1000.000,-1000.000,-28.320,-1000.000
1741603770.809,-865.234,-827.637,-9.766,-774.902
1741603770.812,520.996,520.996,-22.949,628.418
1741603770.816,999.512,999.512,-34.668,999.512
1741603770.820,391.113,380.859,-36.133,78.613
1741603770.824,-992.188,-1000.000,-84.473,-1000.000
1741603770.828,-921.875,-885.742,-51.758,-860.352
1741603770.845,557.129,606.934,57.129,608.887
1741603770.849,999.512,999.512,53.711,999.512
1741603770.853,148.438,108.398,-38.086,-55.176
1741603770.857,-1000.000,-1000.000,-83.496,-1000.000
1741603770.861,-909.668,-909.668,-25.879,-829.590
1741603770.865,580.078,595.703,103.027,645.020
1741603770.869,999.512,999.512,86.914,999.512
1741603770.872,-271.484,-357.422,-76.660,-328.613
1741603770.876,-1000.000,-1000.000,-97.656,-1000.000
1741603770.880,-854.980,-883.789,-70.801,-808.594
1741603770.884,539.551,529.785,-14.160,586.914
1741603770.888,999.512,999.512,36.133,999.512
1741603770.845,557.129,606.934,57.129,608.887
1741603770.849,999.512,999.512,53.711,999.512
1741603770.853,148.438,108.398,-38.086,-55.176
1741603770.857,-1000.000,-1000.000,-83.496,-1000.000
1741603770.861,-909.668,-909.668,-25.879,-829.590
1741603770.865,580.078,595.703,103.027,645.020
1741603770.869,999.512,999.512,86.914,999.512
1741603770.872,-271.484,-357.422,-76.660,-328.613
1741603770.876,-1000.000,-1000.000,-97.656,-1000.000
1741603770.880,-854.980,-883.789,-70.801,-808.594
1741603770.884,539.551,529.785,-14.160,586.914
1741603770.888,999.512,999.512,36.133,999.512
1741603770.891,-220.215,-418.457,-64.941,-279.785
1741603770.895,-1000.000,-1000.000,-88.379,-1000.000
1741603770.899,-252.930,71.289,46.875,-177.734
1741603770.903,986.816,999.512,58.105,999.512
1741603770.907,981.934,995.117,-9.766,751.953
1741603770.911,-301.270,-94.727,4.395,-490.234
1741603770.915,-1000.000,-1000.000,-55.176,-1000.000
1741603770.918,-822.266,-892.578,-63.965,-729.492
1741603770.922,464.844,387.207,6.836,561.523
1741603770.926,999.512,999.512,17.090,999.512
1741603770.930,709.473,718.750,-17.090,448.730
1741603770.934,-714.355,-704.590,-75.195,-849.609
1741603770.937,-1000.000,-1000.000,-67.383,-1000.000
1741603770.941,305.664,302.246,54.199,372.070
1741603770.945,999.512,999.512,74.707,999.512
1741603770.949,826.172,832.520,-2.930,638.672
1741603770.953,-587.891,-601.074,-29.785,-729.980
1741603770.957,-1000.000,-1000.000,5.371,-1000.000
1741603770.961,391.602,505.859,73.242,447.754
1741603770.964,999.512,999.512,33.203,999.512
1741603770.968,-315.918,-491.211,-91.309,-350.098
1741603770.972,-1000.000,-1000.000,-104.492,-1000.000
1741603770.976,-687.012,-691.406,-4.395,-427.734
1741603770.980,741.211,708.008,52.246,861.816
1741603770.937,-1000.000,-1000.000,-67.383,-1000.000
1741603770.941,305.664,302.246,54.199,372.070
1741603770.945,999.512,999.512,74.707,999.512
1741603770.949,826.172,832.520,-2.930,638.672
1741603770.953,-587.891,-601.074,-29.785,-729.980
1741603770.957,-1000.000,-1000.000,5.371,-1000.000
1741603770.961,391.602,505.859,73.242,447.754
1741603770.964,999.512,999.512,33.203,999.512
1741603770.968,-315.918,-491.211,-91.309,-350.098
1741603770.972,-1000.000,-1000.000,-104.492,-1000.000
1741603770.976,-687.012,-691.406,-4.395,-427.734
1741603770.980,741.211,708.008,52.246,861.816
1741603771.446,708.008,701.660,22.949,320.801
1741603771.450,-899.414,-938.477,-52.246,-1000.000
1741603771.454,-1000.000,-815.430,-7.324,-933.105
1741603771.458,686.035,833.496,61.523,698.242
1741603771.462,969.727,999.512,9.766,811.035
1741603771.466,-669.922,-494.629,-26.367,-776.367
1741603771.470,-1000.000,-1000.000,-21.973,-1000.000
1741603771.473,-981.445,-982.910,-111.328,-996.094
1741603771.477,-898.926,-895.020,-151.855,-760.742
1741603771.481,699.219,694.824,-34.180,785.156
1741603771.485,945.312,946.289,-23.926,812.988
1741603771.489,-612.305,-611.328,-124.023,-698.730
1741603770.980,999.512,999.512,3.906,974.121
1741603770.984,-284.180,-209.961,-50.781,-379.395
1741603770.988,-1000.000,-1000.000,-72.754,-1000.000
1741603770.992,-784.180,-787.598,-12.695,-607.422
1741603770.996,531.738,535.645,95.703,681.152
1741603771.000,999.512,999.512,80.566,999.512
1741603771.004,361.328,422.363,-0.488,113.770
1741603771.007,-875.977,-829.590,-62.012,-965.820
1741603771.011,-1000.000,-1000.000,-105.957,-1000.000
1741603771.015,-236.328,-415.039,-49.316,-33.203
1741603771.019,999.512,969.727,39.062,999.512
1741603771.023,841.309,874.512,4.395,793.945
1741603770.980,999.512,999.512,3.906,974.121
1741603770.984,-284.180,-209.961,-50.781,-379.395
1741603770.988,-1000.000,-1000.000,-72.754,-1000.000
1741603770.992,-784.180,-787.598,-12.695,-607.422
1741603770.996,531.738,535.645,95.703,681.152
1741603771.000,999.512,999.512,80.566,999.512
1741603771.004,361.328,422.363,-0.488,113.770
1741603771.007,-875.977,-829.590,-62.012,-965.820
1741603771.011,-1000.000,-1000.000,-105.957,-1000.000
1741603771.015,-236.328,-415.039,-49.316,-33.203
1741603771.019,999.512,969.727,39.062,999.512
1741603771.023,841.309,874.512,4.395,793.945
1741603771.027,-543.457,-553.223,-96.680,-576.660
1741603771.031,-1000.000,-1000.000,-104.980,-1000.000
1741603771.035,-650.391,-606.445,-24.902,-467.285
1741603771.039,686.035,684.570,37.109,826.660
1741603771.043,999.512,999.512,-7.324,928.711
1741603771.047,142.578,489.258,3.418,-254.883
1741603771.051,-979.492,-820.801,-3.418,-1000.000
1741603771.054,-1000.000,-1000.000,-63.965,-973.633
1741603771.058,-1.465,-164.551,-46.875,155.762
1741603771.062,999.512,999.512,100.098,999.512
1741603771.066,798.340,825.195,65.918,733.887
1741603771.070,-536.133,-549.805,-83.496,-627.441
1741603771.070,-1000.000,-1000.000,-80.078,-1000.000
1741603771.074,-540.527,-583.008,-27.344,-219.727
1741603771.078,883.301,856.934,43.457,968.750
1741603771.082,976.074,985.840,30.762,923.340
1741603771.086,-577.148,-619.141,-67.871,-581.543
1741603771.090,-1000.000,-1000.000,-25.391,-1000.000
1741603771.094,328.613,502.441,100.098,378.418
1741603771.097,999.512,999.512,60.547,999.512
1741603771.101,-339.844,-509.277,-80.566,-365.723
1741603771.105,-1000.000,-1000.000,-63.965,-1000.000
1741603771.109,-746.094,-773.438,14.160,-503.418
1741603771.113,668.945,638.672,81.543,791.992
1741603771.118,999.512,999.512,90.332,999.512
1741603771.122,-243.652,-293.945,-38.574,-279.297
1741603771.126,-1000.000,-1000.000,-113.281,-1000.000
1741603771.130,-811.035,-805.176,-32.715,-670.898
1741603771.134,495.605,499.512,43.457,618.164
1741603771.138,999.512,999.512,106.445,999.512
1741603771.142,685.059,697.266,47.363,501.465
1741603771.145,-680.664,-662.598,-121.094,-801.758
1741603771.149,-1000.000,-1000.000,-116.211,-1000.000
1741603771.153,2.441,-33.203,6.348,153.809
1741603771.157,999.512,999.512,83.496,999.512
1741603771.161,844.238,852.539,20.020,746.582
1741603771.175,-588.867,-599.609,-111.816,-678.223
1741603771.179,-1000.000,-1000.000,-60.547,-1000.000
1741603771.183,174.805,265.625,83.496,286.133
1741603771.187,999.512,999.512,69.336,999.512
1741603771.191,120.117,-154.297,-42.969,22.949
1741603771.195,-1000.000,-1000.000,-18.066,-1000.000
1741603771.199,-860.840,-806.152,35.156,-672.363
1741603771.202,708.984,722.168,49.805,802.734
1741603771.206,991.699,977.051,10.254,954.590
1741603771.210,-577.148,-608.398,-89.844,-599.609
1741603771.214,-1000.000,-1000.000,-86.426,-1000.000
1741603771.218,-126.465,-78.613,14.160,9.277
1741603771.221,999.512,999.512,41.016,999.512
1741603771.225,825.684,818.848,-5.859,748.535
1741603771.229,-550.781,-545.410,-94.727,-649.414
1741603771.233,-1000.000,-1000.000,-125.488,-1000.000
1741603771.237,-482.422,-579.102,-23.926,-173.828
1741603771.241,934.570,884.766,133.789,999.512
1741603771.245,895.020,906.738,35.156,781.250
1741603771.248,-592.773,-591.309,-174.316,-676.758
1741603771.252,-1000.000,-1000.000,-208.008,-1000.000
1741603771.256,-229.980,-366.211,-46.387,13.672
1741603771.260,999.512,979.980,45.898,999.512
1741603771.264,863.770,883.301,-39.062,727.051
1741603771.221,999.512,999.512,41.016,999.512
1741603771.225,825.684,818.848,-5.859,748.535
1741603771.229,-550.781,-545.410,-94.727,-649.414
1741603771.233,-1000.000,-1000.000,-125.488,-1000.000
1741603771.237,-482.422,-579.102,-23.926,-173.828
1741603771.241,934.570,884.766,133.789,999.512
1741603771.245,895.020,906.738,35.156,781.250
1741603771.248,-592.773,-591.309,-174.316,-676.758
1741603771.252,-1000.000,-1000.000,-208.008,-1000.000
1741603771.256,-229.980,-366.211,-46.387,13.672
1741603771.260,999.512,979.980,45.898,999.512
1741603771.264,863.770,883.301,-39.062,727.051
1741603771.265,-586.426,-593.262,-150.879,-697.754
1741603771.269,-1000.000,-1000.000,-129.883,-1000.000
1741603771.273,-55.664,-99.609,-12.695,117.676
1741603771.277,999.512,999.512,57.617,999.512
1741603771.281,847.168,904.785,17.090,771.973
1741603771.285,-488.770,-406.250,-83.984,-563.965
1741603771.289,-1000.000,-1000.000,-95.215,-1000.000
1741603771.292,-591.797,-581.543,-20.508,-294.922
1741603771.296,876.465,885.742,2.930,976.562
1741603771.300,928.711,916.016,-57.129,787.109
1741603771.304,-620.605,-607.910,-136.719,-718.750
1741603771.308,-1000.000,-1000.000,-112.305,-1000.000
1741603771.265,-586.426,-593.262,-150.879,-697.754
1741603771.269,-1000.000,-1000.000,-129.883,-1000.000
1741603771.273,-55.664,-99.609,-12.695,117.676
1741603771.277,999.512,999.512,57.617,999.512
1741603771.281,847.168,904.785,17.090,771.973
1741603771.285,-488.770,-406.250,-83.984,-563.965
1741603771.289,-1000.000,-1000.000,-95.215,-1000.000
1741603771.292,-591.797,-581.543,-20.508,-294.922
1741603771.296,876.465,885.742,2.930,976.562
1741603771.300,928.711,916.016,-57.129,787.109
1741603771.304,-620.605,-607.910,-136.719,-718.750
1741603771.308,-1000.000,-1000.000,-112.305,-1000.000
1741603771.312,0.000,-168.457,11.719,192.871
1741603771.316,999.512,999.512,81.543,999.512
1741603771.320,836.914,874.023,-19.043,593.262
1741603771.324,-691.895,-692.871,-152.832,-825.195
1741603771.328,-1000.000,-1000.000,-98.145,-1000.000
1741603771.332,584.961,615.234,67.383,604.980
1741603771.336,999.512,999.512,42.480,999.512
1741603771.339,-308.594,-362.793,-174.316,-408.691
1741603771.343,-1000.000,-1000.000,-237.305,-1000.000
1741603771.347,-730.469,-718.750,-96.680,-531.738
1741603771.351,760.254,768.066,47.852,852.051
1741603771.355,986.816,980.469,8.301,931.152
1741603771.312,0.000,-168.457,11.719,192.871
1741603771.316,999.512,999.512,81.543,999.512
1741603771.320,836.914,874.023,-19.043,593.262
1741603771.324,-691.895,-692.871,-152.832,-825.195
1741603771.328,-1000.000,-1000.000,-98.145,-1000.000
1741603771.332,584.961,615.234,67.383,604.980
1741603771.336,999.512,999.512,42.480,999.512
1741603771.339,-308.594,-362.793,-174.316,-408.691
1741603771.343,-1000.000,-1000.000,-237.305,-1000.000
1741603771.347,-730.469,-718.750,-96.680,-531.738
1741603771.351,760.254,768.066,47.852,852.051
1741603771.355,986.816,980.469,8.301,931.152
1741603771.355,-500.977,-511.719,-135.742,-564.453
1741603771.359,-1000.000,-1000.000,-141.602,-1000.000
1741603771.363,-514.160,-482.422,-33.691,-234.375
1741603771.367,806.152,787.598,30.762,925.781
1741603771.371,999.512,999.512,32.227,913.574
1741603771.375,11.230,247.070,20.020,-242.676
1741603771.379,-1000.000,-972.168,-62.988,-1000.000
1741603771.382,-967.773,-1000.000,-128.906,-881.348
1741603771.386,283.691,112.793,-65.430,402.344
1741603771.390,999.512,999.512,25.879,999.512
1741603771.394,731.445,736.816,14.160,470.703
1741603771.398,-778.320,-797.363,-105.469,-893.066
1741603771.402,-975.098,-965.820,-106.934,-944.824
1741603771.406,564.941,566.406,55.664,586.426
1741603771.410,999.512,999.512,67.383,999.512
1741603771.414,437.012,500.488,-30.273,103.027
1741603771.418,-1000.000,-988.770,-117.676,-1000.000
1741603771.422,-758.789,-575.195,21.484,-574.707
1741603771.426,904.785,999.512,189.941,950.195
1741603771.429,904.785,841.797,74.707,786.133
1741603771.433,-610.352,-629.883,-102.051,-723.633
1741603771.437,-1000.000,-1000.000,-67.871,-1000.000
1741603771.441,-294.434,-279.297,40.039,-25.391
1741603771.445,999.512,999.512,96.191,999.512
1741603771.496,-1000.000,-1000.000,-174.316,-1000.000
1741603771.500,-862.793,-856.445,-166.016,-895.508
1741603771.504,572.754,576.172,-30.762,560.547
1741603771.508,999.512,999.512,-35.156,989.746
1741603771.512,-452.637,-452.148,-177.734,-552.246
1741603771.516,-1000.000,-1000.000,-131.348,-1000.000
1741603771.520,-614.258,-238.770,-57.129,-540.527
1741603771.523,889.648,956.055,-77.148,848.633
1741603771.527,4.395,-325.195,-204.590,-97.656
1741603771.531,-1000.000,-1000.000,-239.746,-1000.000
1741603771.535,-1000.000,-1000.000,-184.570,-995.605
1741603771.539,-142.578,-143.555,-166.992,-66.406
1741603771.496,-1000.000,-1000.000,-174.316,-1000.000
1741603771.500,-862.793,-856.445,-166.016,-895.508
1741603771.504,572.754,576.172,-30.762,560.547
1741603771.508,999.512,999.512,-35.156,989.746
1741603771.512,-452.637,-452.148,-177.734,-552.246
1741603771.516,-1000.000,-1000.000,-131.348,-1000.000
1741603771.520,-614.258,-238.770,-57.129,-540.527
1741603771.523,889.648,956.055,-77.148,848.633
1741603771.527,4.395,-325.195,-204.590,-97.656
1741603771.531,-1000.000,-1000.000,-239.746,-1000.000
1741603771.535,-1000.000,-1000.000,-184.570,-995.605
1741603771.539,-142.578,-143.555,-166.992,-66.406
1741603771.535,999.512,999.512,-133.301,999.512
1741603771.539,720.703,722.656,-151.855,439.453
1741603771.543,-658.203,-650.391,-242.188,-819.824
1741603771.547,-1000.000,-1000.000,-240.234,-1000.000
1741603771.551,-679.688,-681.152,-189.453,-489.746
1741603771.555,816.406,812.988,-38.574,895.020
1741603771.559,915.527,916.992,-71.289,845.703
1741603771.562,-602.539,-604.492,-275.879,-633.301
1741603771.566,-1000.000,-1000.000,-312.012,-1000.000
1741603771.570,-804.688,-838.379,-238.281,-652.832
1741603771.574,533.691,526.367,-122.070,672.363
1741603771.578,999.512,999.512,-94.727,999.512
1741603771.535,999.512,999.512,-133.301,999.512
1741603771.539,720.703,722.656,-151.855,439.453
1741603771.543,-658.203,-650.391,-242.188,-819.824
1741603771.547,-1000.000,-1000.000,-240.234,-1000.000
1741603771.551,-679.688,-681.152,-189.453,-489.746
1741603771.555,816.406,812.988,-38.574,895.020
1741603771.559,915.527,916.992,-71.289,845.703
1741603771.562,-602.539,-604.492,-275.879,-633.301
1741603771.566,-1000.000,-1000.000,-312.012,-1000.000
1741603771.570,-804.688,-838.379,-238.281,-652.832
1741603771.574,533.691,526.367,-122.070,672.363
1741603771.578,999.512,999.512,-94.727,999.512
1741603771.596,31.738,-141.113,-164.551,-125.488
1741603771.600,-1000.000,-1000.000,-229.492,-1000.000
1741603771.604,-854.492,-836.426,-194.824,-709.961
1741603771.608,549.805,541.504,-76.172,638.672
1741603771.612,999.512,999.512,-54.688,999.512
1741603771.616,921.875,928.711,-40.039,881.348
1741603771.620,-203.125,-176.270,-100.586,-296.387
1741603771.623,-1000.000,-1000.000,-226.074,-1000.000
1741603771.627,-715.332,-784.180,-174.316,-487.305
1741603771.631,607.422,529.297,-11.230,737.305
1741603771.635,999.512,999.512,32.227,999.512
1741603771.639,750.488,671.387,-57.617,648.926
1741603771.596,31.738,-141.113,-164.551,-125.488
1741603771.600,-1000.000,-1000.000,-229.492,-1000.000
1741603771.604,-854.492,-836.426,-194.824,-709.961
1741603771.608,549.805,541.504,-76.172,638.672
1741603771.612,999.512,999.512,-54.688,999.512
1741603771.616,921.875,928.711,-40.039,881.348
1741603771.620,-203.125,-176.270,-100.586,-296.387
1741603771.623,-1000.000,-1000.000,-226.074,-1000.000
1741603771.627,-715.332,-784.180,-174.316,-487.305
1741603771.631,607.422,529.297,-11.230,737.305
1741603771.635,999.512,999.512,32.227,999.512
1741603771.639,750.488,671.387,-57.617,648.926
1741603771.640,-750.977,-805.664,-221.680,-831.543
1741603771.644,-986.328,-1000.000,-147.461,-737.305
1741603771.648,602.539,640.625,14.648,758.301
1741603771.652,999.512,999.512,-4.883,999.512
1741603771.656,-30.762,-467.773,-33.691,-22.461
1741603771.660,-1000.000,-1000.000,-47.852,-1000.000
1741603771.664,258.789,444.336,43.945,346.680
1741603771.667,999.512,999.512,53.711,999.512
1741603771.671,73.730,-356.445,-113.770,15.137
1741603771.675,-1000.000,-1000.000,-140.625,-1000.000
1741603771.679,-273.438,-374.023,-21.973,-83.008
1741603771.683,922.363,847.656,45.898,971.680
1741603771.640,-750.977,-805.664,-221.680,-831.543
1741603771.644,-986.328,-1000.000,-147.461,-737.305
1741603771.648,602.539,640.625,14.648,758.301
1741603771.652,999.512,999.512,-4.883,999.512
1741603771.656,-30.762,-467.773,-33.691,-22.461
1741603771.660,-1000.000,-1000.000,-47.852,-1000.000
1741603771.664,258.789,444.336,43.945,346.680
1741603771.667,999.512,999.512,53.711,999.512
1741603771.671,73.730,-356.445,-113.770,15.137
1741603771.675,-1000.000,-1000.000,-140.625,-1000.000
1741603771.679,-273.438,-374.023,-21.973,-83.008
1741603771.683,922.363,847.656,45.898,971.680
1741603771.687,999.512,999.512,76.660,999.512
1741603771.691,528.320,398.438,-26.855,313.965
1741603771.695,-965.332,-1000.000,-131.348,-1000.000
1741603771.699,-904.297,-892.578,-41.504,-732.910
1741603771.703,577.637,559.570,39.062,665.527
1741603771.707,999.512,999.512,111.328,999.512
1741603771.711,802.246,790.039,93.750,756.348
1741603771.714,-552.734,-533.691,-90.332,-619.629
1741603771.718,-1000.000,-1000.000,-133.789,-1000.000
1741603771.722,88.379,-126.953,-8.789,122.070
1741603771.726,999.512,999.512,70.801,999.512
1741603771.730,918.457,893.555,27.344,871.094
1741603771.730,-429.688,-503.418,-86.426,-519.531
1741603771.734,-1000.000,-1000.000,-80.566,-1000.000
1741603771.738,163.574,27.832,44.434,143.555
1741603771.742,999.512,949.219,103.027,999.512
1741603771.746,957.031,671.387,21.973,628.418
1741603771.750,901.367,772.461,10.254,-177.734
1741603771.754,-648.926,-561.523,-20.996,-969.238
1741603771.757,-1000.000,-1000.000,-71.777,-892.578
1741603771.761,562.988,392.578,-6.348,500.977
1741603771.765,999.512,999.512,66.406,999.512
1741603771.769,891.113,853.027,36.133,835.449
1741603771.773,-441.406,-497.559,-74.707,-537.598
1741603771.777,-1000.000,-1000.000,-157.227,-1000.000
1741603771.781,256.836,159.180,-36.621,291.504
1741603771.785,999.512,999.512,34.668,999.512
1741603771.789,935.059,902.832,-5.371,884.766
1741603771.793,-414.062,-516.113,-73.242,-506.836
1741603771.797,-1000.000,-1000.000,-66.895,-1000.000
1741603771.801,313.965,384.277,25.879,354.980
1741603771.804,999.512,999.512,29.785,999.512
1741603771.808,608.398,247.070,-95.703,373.535
1741603771.812,-902.832,-1000.000,-147.461,-993.652
1741603771.816,-916.016,-880.371,-60.059,-793.945
1741603771.820,596.680,535.156,31.250,656.250
1741603771.777,-1000.000,-1000.000,-157.227,-1000.000
1741603771.781,256.836,159.180,-36.621,291.504
1741603771.785,999.512,999.512,34.668,999.512
1741603771.789,935.059,902.832,-5.371,884.766
1741603771.793,-414.062,-516.113,-73.242,-506.836
1741603771.797,-1000.000,-1000.000,-66.895,-1000.000
1741603771.801,313.965,384.277,25.879,354.980
1741603771.804,999.512,999.512,29.785,999.512
1741603771.808,608.398,247.070,-95.703,373.535
1741603771.812,-902.832,-1000.000,-147.461,-993.652
1741603771.816,-916.016,-880.371,-60.059,-793.945
1741603771.820,596.680,535.156,31.250,656.250
1741603771.820,999.512,999.512,25.879,999.512
1741603771.824,806.641,720.703,-19.531,506.348
1741603771.828,-632.812,-683.594,-63.477,-815.918
1741603771.832,-1000.000,-1000.000,-75.195,-1000.000
1741603771.836,443.359,295.898,1.465,409.668
1741603771.840,999.512,999.512,102.051,999.512
1741603771.844,893.066,889.648,55.664,787.598
1741603771.847,-295.410,-320.801,-19.531,-464.844
1741603771.851,-1000.000,-1000.000,-106.445,-1000.000
1741603771.855,-816.895,-864.258,-119.141,-704.590
1741603771.859,579.102,575.195,23.926,669.434
1741603771.863,999.512,999.512,37.598,999.512
1741603771.867,-223.145,-436.035,-35.156,-285.645
1741603771.871,-1000.000,-1000.000,-11.719,-1000.000
1741603771.875,-723.145,-750.977,-9.277,-604.492
1741603771.879,604.004,547.852,37.598,714.844
1741603771.883,999.512,999.512,62.012,999.512
1741603771.887,548.340,606.445,49.805,7.324
1741603771.891,-791.504,-713.379,0.488,-972.656
1741603771.894,-1000.000,-1000.000,-120.605,-1000.000
1741603771.898,-56.641,-297.363,-71.289,19.531
1741603771.902,999.512,983.398,58.594,999.512
1741603771.906,898.438,919.922,48.828,840.820
1741603771.910,-397.949,-446.777,-74.219,-497.070
1741603771.910,-1000.000,-1000.000,-146.484,-1000.000
1741603771.914,-739.746,-819.336,-41.016,-520.996
1741603771.918,756.348,676.270,71.289,848.145
1741603771.922,945.801,947.754,20.508,905.762
1741603771.926,-564.453,-586.914,-77.148,-586.426
1741603771.930,-1000.000,-1000.000,-74.219,-1000.000
1741603771.934,-623.047,-608.398,-14.160,-367.188
1741603771.937,869.629,713.379,0.488,920.410
1741603771.941,102.539,-303.711,-112.305,-7.812
1741603771.945,-1000.000,-1000.000,-119.629,-1000.000
1741603771.949,-816.895,-786.621,-19.531,-702.148
1741603771.953,508.789,483.398,49.805,614.746
1741603771.910,-1000.000,-1000.000,-146.484,-1000.000
1741603771.914,-739.746,-819.336,-41.016,-520.996
1741603771.918,756.348,676.270,71.289,848.145
1741603771.922,945.801,947.754,20.508,905.762
1741603771.926,-564.453,-586.914,-77.148,-586.426
1741603771.930,-1000.000,-1000.000,-74.219,-1000.000
1741603771.934,-623.047,-608.398,-14.160,-367.188
1741603771.937,869.629,713.379,0.488,920.410
1741603771.941,102.539,-303.711,-112.305,-7.812
1741603771.945,-1000.000,-1000.000,-119.629,-1000.000
1741603771.949,-816.895,-786.621,-19.531,-702.148
1741603771.953,508.789,483.398,49.805,614.746
1741603771.959,999.512,999.512,72.754,999.512
1741603771.963,599.121,505.859,66.406,430.664
1741603771.967,-738.770,-771.973,-28.320,-854.004
1741603771.971,-1000.000,-1000.000,-40.527,-1000.000
1741603771.975,-179.199,-430.664,73.242,95.703
1741603771.979,999.512,964.355,195.312,999.512
1741603771.983,826.660,865.723,140.137,765.137
1741603771.986,-553.711,-575.195,19.531,-613.281
1741603771.990,-1000.000,-1000.000,-35.645,-1000.000
1741603771.994,-702.637,-754.395,31.738,-323.730
1741603771.998,792.969,737.793,125.488,937.988
1741603772.002,925.781,948.730,102.051,856.934
1741603772.045,-600.098,-586.914,20.508,-583.496
1741603772.049,-1000.000,-1000.000,-6.348,-1000.000
1741603772.053,-804.688,-806.152,51.758,-595.703
1741603772.057,477.539,481.445,140.625,648.926
1741603772.061,999.512,999.512,168.945,999.512
1741603772.065,400.879,385.254,185.547,292.480
1741603772.069,-912.598,-909.180,73.242,-969.727
1741603772.072,-1000.000,-1000.000,-48.828,-977.051
1741603772.076,-927.734,-927.734,216.309,-667.969
1741603772.080,-973.145,-976.562,548.340,-1000.000
1741603772.084,-1000.000,-1000.000,573.730,-785.156
1741603772.088,188.477,186.035,701.660,690.430
1741603772.045,-600.098,-586.914,20.508,-583.496
1741603772.049,-1000.000,-1000.000,-6.348,-1000.000
1741603772.053,-804.688,-806.152,51.758,-595.703
1741603772.057,477.539,481.445,140.625,648.926
1741603772.061,999.512,999.512,168.945,999.512
1741603772.065,400.879,385.254,185.547,292.480
1741603772.069,-912.598,-909.180,73.242,-969.727
1741603772.072,-1000.000,-1000.000,-48.828,-977.051
1741603772.076,-927.734,-927.734,216.309,-667.969
1741603772.080,-973.145,-976.562,548.340,-1000.000
1741603772.084,-1000.000,-1000.000,573.730,-785.156
1741603772.088,188.477,186.035,701.660,690.430
1741603772.091,872.559,932.617,757.812,851.562
1741603772.095,-743.164,-636.230,692.871,-612.305
1741603772.099,-1000.000,-1000.000,708.984,-1000.000
1741603772.103,-1000.000,-1000.000,729.492,-74.707
1741603772.107,-138.672,44.922,809.570,999.512
1741603772.111,782.227,999.512,920.410,921.875
1741603772.115,-652.344,-263.184,812.012,-314.453
1741603772.118,-1000.000,-1000.000,649.414,-1000.000
1741603772.122,-118.652,-95.215,767.578,-82.031
1741603772.126,455.078,961.426,793.457,952.637
1741603772.130,-873.047,-460.938,587.402,-430.176
1741603772.134,-1000.000,-1000.000,537.598,-1000.000
1741603772.091,872.559,932.617,757.812,851.562
1741603772.095,-743.164,-636.230,692.871,-612.305
1741603772.099,-1000.000,-1000.000,708.984,-1000.000
1741603772.103,-1000.000,-1000.000,729.492,-74.707
1741603772.107,-138.672,44.922,809.570,999.512
1741603772.111,782.227,999.512,920.410,921.875
1741603772.115,-652.344,-263.184,812.012,-314.453
1741603772.118,-1000.000,-1000.000,649.414,-1000.000
1741603772.122,-118.652,-95.215,767.578,-82.031
1741603772.126,455.078,961.426,793.457,952.637
1741603772.130,-873.047,-460.938,587.402,-430.176
1741603772.134,-1000.000,-1000.000,537.598,-1000.000
1741603772.135,-265.625,-18.066,567.383,-86.914
1741603772.139,430.664,999.512,534.668,997.070
1741603772.143,-833.496,-95.215,376.465,-338.379
1741603772.147,-1000.000,-1000.000,287.109,-1000.000
1741603772.151,-190.918,81.543,390.137,-147.949
1741603772.155,760.742,999.512,454.102,999.512
1741603772.159,-607.422,267.578,266.602,-35.156
1741603772.162,-1000.000,-1000.000,48.340,-1000.000
1741603772.166,-900.879,-317.871,80.566,-555.176
1741603772.170,573.242,999.512,261.230,993.652
1741603772.174,363.281,488.281,166.504,428.223
1741603772.178,-1000.000,-1000.000,-42.480,-1000.000
1741603772.135,-265.625,-18.066,567.383,-86.914
1741603772.139,430.664,999.512,534.668,997.070
1741603772.143,-833.496,-95.215,376.465,-338.379
1741603772.147,-1000.000,-1000.000,287.109,-1000.000
1741603772.151,-190.918,81.543,390.137,-147.949
1741603772.155,760.742,999.512,454.102,999.512
1741603772.159,-607.422,267.578,266.602,-35.156
1741603772.162,-1000.000,-1000.000,48.340,-1000.000
1741603772.166,-900.879,-317.871,80.566,-555.176
1741603772.170,573.242,999.512,261.230,993.652
1741603772.174,363.281,488.281,166.504,428.223
1741603772.178,-1000.000,-1000.000,-42.480,-1000.000
1741603772.180,-827.148,-298.340,36.621,-496.582
1741603772.184,793.457,999.512,180.176,999.512
1741603772.188,353.027,563.965,104.004,425.293
1741603772.192,-1000.000,-1000.000,-84.961,-1000.000
1741603772.196,-1000.000,-299.316,-81.055,-715.820
1741603772.200,455.566,999.512,85.449,876.953
1741603772.204,584.961,905.273,27.344,596.191
1741603772.207,-933.594,-641.113,-147.949,-928.711
1741603772.211,-1000.000,-274.902,-142.090,-969.238
1741603772.215,-542.480,999.512,-119.629,109.375
1741603772.219,988.281,999.512,-69.824,999.512
1741603772.223,146.484,84.961,-189.453,-35.156
1741603772.180,-827.148,-298.340,36.621,-496.582
1741603772.184,793.457,999.512,180.176,999.512
1741603772.188,353.027,563.965,104.004,425.293
1741603772.192,-1000.000,-1000.000,-84.961,-1000.000
1741603772.196,-1000.000,-299.316,-81.055,-715.820
1741603772.200,455.566,999.512,85.449,876.953
1741603772.204,584.961,905.273,27.344,596.191
1741603772.207,-933.594,-641.113,-147.949,-928.711
1741603772.211,-1000.000,-274.902,-142.090,-969.238
1741603772.215,-542.480,999.512,-119.629,109.375
1741603772.219,988.281,999.512,-69.824,999.512
1741603772.223,146.484,84.961,-189.453,-35.156
1741603772.225,-1000.000,-797.363,-251.465,-1000.000
1741603772.229,-255.859,614.258,-113.770,-198.242
1741603772.233,999.512,999.512,-55.664,999.512
1741603772.237,236.328,165.039,-166.992,135.742
1741603772.241,-1000.000,-1000.000,-257.324,-1000.000
1741603772.245,-236.816,139.160,-27.344,-163.574
1741603772.249,999.512,999.512,47.852,999.512
1741603772.252,-8.789,115.234,-187.988,-197.266
1741603772.256,-1000.000,-1000.000,-262.695,-1000.000
1741603772.260,-229.980,-81.543,-100.098,-193.359
1741603772.264,999.512,999.512,-11.230,999.512
1741603772.268,224.121,197.266,-177.734,29.785
1741603772.225,-1000.000,-797.363,-251.465,-1000.000
1741603772.229,-255.859,614.258,-113.770,-198.242
1741603772.233,999.512,999.512,-55.664,999.512
1741603772.237,236.328,165.039,-166.992,135.742
1741603772.241,-1000.000,-1000.000,-257.324,-1000.000
1741603772.245,-236.816,139.160,-27.344,-163.574
1741603772.249,999.512,999.512,47.852,999.512
1741603772.252,-8.789,115.234,-187.988,-197.266
1741603772.256,-1000.000,-1000.000,-262.695,-1000.000
1741603772.260,-229.980,-81.543,-100.098,-193.359
1741603772.264,999.512,999.512,-11.230,999.512
1741603772.268,224.121,197.266,-177.734,29.785
1741603772.285,-1000.000,-1000.000,-257.324,-1000.000
1741603772.289,-270.996,-160.645,-152.344,-285.156
1741603772.293,999.512,999.512,-34.668,999.512
1741603772.297,744.141,896.484,-71.289,572.754
1741603772.301,-893.066,-666.504,-173.340,-1000.000
1741603772.305,-624.512,-416.504,-106.445,-558.594
1741603772.309,999.512,999.512,-38.086,999.512
1741603772.312,420.410,281.250,-181.641,379.395
1741603772.316,-967.773,-993.164,-226.562,-1000.000
1741603772.320,-1000.000,-1000.000,-200.195,-1000.000
1741603772.324,-184.082,-201.660,-185.059,-69.336
1741603772.328,975.098,996.094,-98.633,999.512
1741603772.285,-1000.000,-1000.000,-257.324,-1000.000
1741603772.289,-270.996,-160.645,-152.344,-285.156
1741603772.293,999.512,999.512,-34.668,999.512
1741603772.297,744.141,896.484,-71.289,572.754
1741603772.301,-893.066,-666.504,-173.340,-1000.000
1741603772.305,-624.512,-416.504,-106.445,-558.594
1741603772.309,999.512,999.512,-38.086,999.512
1741603772.312,420.410,281.250,-181.641,379.395
1741603772.316,-967.773,-993.164,-226.562,-1000.000
1741603772.320,-1000.000,-1000.000,-200.195,-1000.000
1741603772.324,-184.082,-201.660,-185.059,-69.336
1741603772.328,975.098,996.094,-98.633,999.512
1741603772.330,999.512,999.512,-62.012,966.797
1741603772.334,80.566,-46.875,-158.203,-112.793
1741603772.338,-1000.000,-1000.000,-234.863,-1000.000
1741603772.342,-230.957,-303.711,-162.109,-204.590
1741603772.346,959.961,925.781,-61.035,958.984
1741603772.350,999.512,999.512,-7.324,999.512
1741603772.354,466.797,332.031,-73.242,387.695
1741603772.357,-1000.000,-1000.000,-243.652,-1000.000
1741603772.361,-683.105,-801.758,-187.012,-551.758
1741603772.365,748.535,584.961,-43.945,809.570
1741603772.369,999.512,999.512,-57.129,999.512
1741603772.373,457.031,302.246,-118.164,410.645
1741603772.330,999.512,999.512,-62.012,966.797
1741603772.334,80.566,-46.875,-158.203,-112.793
1741603772.338,-1000.000,-1000.000,-234.863,-1000.000
1741603772.342,-230.957,-303.711,-162.109,-204.590
1741603772.346,959.961,925.781,-61.035,958.984
1741603772.350,999.512,999.512,-7.324,999.512
1741603772.354,466.797,332.031,-73.242,387.695
1741603772.357,-1000.000,-1000.000,-243.652,-1000.000
1741603772.361,-683.105,-801.758,-187.012,-551.758
1741603772.365,748.535,584.961,-43.945,809.570
1741603772.369,999.512,999.512,-57.129,999.512
1741603772.373,457.031,302.246,-118.164,410.645
1741603772.840,-827.637,-1000.000,-236.816,-929.688
1741603772.844,-1000.000,-1000.000,-195.312,-1000.000
1741603772.848,-63.965,-225.586,-100.586,-42.480
1741603772.852,999.512,999.512,-25.391,999.512
1741603772.856,482.910,384.277,-145.508,292.480
1741603772.860,-1000.000,-1000.000,-192.383,-1000.000
1741603772.864,-860.840,-1000.000,-112.305,-808.594
1741603772.867,561.035,255.371,-50.293,519.531
1741603772.871,999.512,999.512,10.742,999.512
1741603772.875,186.035,117.676,-163.574,69.336
1741603772.879,-1000.000,-1000.000,-294.434,-1000.000
1741603772.883,-233.398,-403.809,-168.457,-232.422
1741603772.376,-1000.000,-1000.000,-194.336,-1000.000
1741603772.380,-715.820,-840.820,-157.227,-586.426
1741603772.384,860.840,812.012,-25.879,944.336
1741603772.388,999.512,628.906,-59.082,927.734
1741603772.392,-603.516,-1000.000,-166.504,-690.918
1741603772.396,-632.324,-510.742,-44.922,-570.801
1741603772.400,999.512,999.512,58.594,999.512
1741603772.403,801.758,466.797,-113.281,725.586
1741603772.407,-705.078,-967.285,-189.941,-790.527
1741603772.411,-1000.000,-1000.000,-148.438,-978.027
1741603772.415,265.625,118.652,-91.309,395.508
1741603772.419,999.512,999.512,-42.480,999.512
1741603772.420,999.512,999.512,-97.168,886.719
1741603772.424,181.152,130.371,-182.129,-161.621
1741603772.428,-1000.000,-1000.000,-208.496,-1000.000
1741603772.432,-168.457,-169.922,-102.539,-22.949
1741603772.436,989.258,994.629,-25.391,999.512
1741603772.440,999.512,999.512,-38.086,999.512
1741603772.444,526.855,701.172,-77.637,314.453
1741603772.447,-861.816,-665.527,-202.148,-986.816
1741603772.451,-1000.000,-1000.000,-246.094,-976.562
1741603772.455,120.605,38.574,-117.188,257.812
1741603772.459,999.512,999.512,-87.402,999.512
1741603772.463,999.512,999.512,-126.465,895.508
1741603772.465,216.309,209.473,-208.008,-141.113
1741603772.469,-1000.000,-1000.000,-278.320,-1000.000
1741603772.473,-190.430,-171.387,-154.297,-121.094
1741603772.477,990.234,998.535,-120.117,999.512
1741603772.481,999.512,999.512,-138.184,999.512
1741603772.485,410.156,658.203,-122.559,101.562
1741603772.489,-1000.000,-808.594,-200.195,-1000.000
1741603772.492,-962.891,-1000.000,-224.609,-820.312
1741603772.496,375.488,370.605,-130.859,452.148
1741603772.500,999.512,999.512,-124.023,999.512
1741603772.504,741.211,700.684,-155.273,457.031
1741603772.508,-690.430,-690.918,-247.070,-923.340
1741603772.465,216.309,209.473,-208.008,-141.113
1741603772.469,-1000.000,-1000.000,-278.320,-1000.000
1741603772.473,-190.430,-171.387,-154.297,-121.094
1741603772.477,990.234,998.535,-120.117,999.512
1741603772.481,999.512,999.512,-138.184,999.512
1741603772.485,410.156,658.203,-122.559,101.562
1741603772.489,-1000.000,-808.594,-200.195,-1000.000
1741603772.492,-962.891,-1000.000,-224.609,-820.312
1741603772.496,375.488,370.605,-130.859,452.148
1741603772.500,999.512,999.512,-124.023,999.512
1741603772.504,741.211,700.684,-155.273,457.031
1741603772.508,-690.430,-690.918,-247.070,-923.340
1741603772.510,-994.141,-1000.000,-238.770,-850.098
1741603772.514,469.727,384.277,-84.473,512.695
1741603772.518,999.512,999.512,-61.035,999.512
1741603772.522,815.430,641.602,-127.930,636.230
1741603772.526,-711.426,-904.785,-214.844,-883.789
1741603772.530,-326.172,-289.551,-83.008,-315.918
1741603772.534,999.512,999.512,-10.742,999.512
1741603772.537,933.594,933.594,-145.508,912.598
1741603772.541,883.789,882.812,-178.223,952.637
1741603772.545,999.512,999.512,-51.758,833.008
1741603772.549,160.645,183.105,-61.523,-284.668
1741603772.553,-1000.000,-1000.000,-260.254,-1000.000
1741603772.510,-994.141,-1000.000,-238.770,-850.098
1741603772.514,469.727,384.277,-84.473,512.695
1741603772.518,999.512,999.512,-61.035,999.512
1741603772.522,815.430,641.602,-127.930,636.230
1741603772.526,-711.426,-904.785,-214.844,-883.789
1741603772.530,-326.172,-289.551,-83.008,-315.918
1741603772.534,999.512,999.512,-10.742,999.512
1741603772.537,933.594,933.594,-145.508,912.598
1741603772.541,883.789,882.812,-178.223,952.637
1741603772.545,999.512,999.512,-51.758,833.008
1741603772.549,160.645,183.105,-61.523,-284.668
1741603772.553,-1000.000,-1000.000,-260.254,-1000.000
1741603772.555,-191.406,-225.098,-161.621,-160.645
1741603772.559,995.117,990.234,-45.898,999.512
1741603772.563,999.512,999.512,-86.914,999.512
1741603772.567,222.168,187.500,-149.414,28.320
1741603772.571,-1000.000,-1000.000,-244.629,-1000.000
1741603772.575,-275.879,-261.230,-106.934,-236.816
1741603772.579,999.512,999.512,11.719,999.512
1741603772.582,338.379,188.965,-163.086,309.570
1741603772.586,-1000.000,-1000.000,-181.152,-1000.000
1741603772.590,-1000.000,-1000.000,-160.156,-954.102
1741603772.594,167.969,63.477,-147.949,310.547
1741603772.598,999.512,821.777,-119.141,999.512
1741603772.555,-191.406,-225.098,-161.621,-160.645
1741603772.559,995.117,990.234,-45.898,999.512
1741603772.563,999.512,999.512,-86.914,999.512
1741603772.567,222.168,187.500,-149.414,28.320
1741603772.571,-1000.000,-1000.000,-244.629,-1000.000
1741603772.575,-275.879,-261.230,-106.934,-236.816
1741603772.579,999.512,999.512,11.719,999.512
1741603772.582,338.379,188.965,-163.086,309.570
1741603772.586,-1000.000,-1000.000,-181.152,-1000.000
1741603772.590,-1000.000,-1000.000,-160.156,-954.102
1741603772.594,167.969,63.477,-147.949,310.547
1741603772.598,999.512,821.777,-119.141,999.512
1741603772.601,999.512,645.996,-102.051,851.074
1741603772.605,253.906,237.305,-104.980,-14.160
1741603772.609,-1000.000,-1000.000,-216.309,-1000.000
1741603772.613,-324.707,-451.660,-147.949,-279.785
1741603772.617,940.430,897.949,-49.316,947.754
1741603772.621,999.512,999.512,-18.555,999.512
1741603772.625,469.727,343.262,-70.312,403.320
1741603772.628,-939.941,-963.867,-244.629,-1000.000
1741603772.632,-1000.000,-1000.000,-205.566,-863.770
1741603772.636,270.020,119.629,-31.738,456.543
1741603772.640,999.512,999.512,1.465,999.512
1741603772.644,268.555,206.543,-100.586,204.590
1741603772.601,999.512,645.996,-102.051,851.074
1741603772.605,253.906,237.305,-104.980,-14.160
1741603772.609,-1000.000,-1000.000,-216.309,-1000.000
1741603772.613,-324.707,-451.660,-147.949,-279.785
1741603772.617,940.430,897.949,-49.316,947.754
1741603772.621,999.512,999.512,-18.555,999.512
1741603772.625,469.727,343.262,-70.312,403.320
1741603772.628,-939.941,-963.867,-244.629,-1000.000
1741603772.632,-1000.000,-1000.000,-205.566,-863.770
1741603772.636,270.020,119.629,-31.738,456.543
1741603772.640,999.512,999.512,1.465,999.512
1741603772.644,268.555,206.543,-100.586,204.590
1741603772.660,-980.469,-1000.000,-166.504,-1000.000
1741603772.664,-1000.000,-1000.000,-154.297,-961.914
1741603772.668,-0.488,-72.266,-34.668,218.750
1741603772.672,999.512,999.512,38.086,999.512
1741603772.676,201.660,201.660,-98.633,121.094
1741603772.680,-1000.000,-1000.000,-123.047,-1000.000
1741603772.684,-213.867,-129.883,-42.969,-210.938
1741603772.687,999.512,999.512,-52.734,999.512
1741603772.691,999.512,999.512,17.578,949.707
1741603772.695,20.508,25.391,-57.129,-182.617
1741603772.699,-1000.000,-1000.000,-168.945,-1000.000
1741603772.703,-869.629,-827.148,-83.008,-737.305
1741603772.705,413.574,467.773,-4.883,552.246
1741603772.709,999.512,999.512,18.555,999.512
1741603772.713,194.336,190.430,-83.496,-6.348
1741603772.717,-1000.000,-1000.000,-199.707,-1000.000
1741603772.721,-472.656,-319.824,-94.238,-473.145
1741603772.725,890.137,957.520,91.797,912.109
1741603772.729,999.512,999.512,82.520,999.512
1741603772.732,189.941,223.145,-58.105,-114.258
1741603772.736,-1000.000,-1000.000,-138.184,-1000.000
1741603772.740,-621.094,-448.242,-61.035,-604.980
1741603772.744,769.043,892.090,57.129,760.254
1741603772.748,999.512,999.512,102.051,999.512
1741603772.705,413.574,467.773,-4.883,552.246
1741603772.709,999.512,999.512,18.555,999.512
1741603772.713,194.336,190.430,-83.496,-6.348
1741603772.717,-1000.000,-1000.000,-199.707,-1000.000
1741603772.721,-472.656,-319.824,-94.238,-473.145
1741603772.725,890.137,957.520,91.797,912.109
1741603772.729,999.512,999.512,82.520,999.512
1741603772.732,189.941,223.145,-58.105,-114.258
1741603772.736,-1000.000,-1000.000,-138.184,-1000.000
1741603772.740,-621.094,-448.242,-61.035,-604.980
1741603772.744,769.043,892.090,57.129,760.254
1741603772.748,999.512,999.512,102.051,999.512
1741603772.750,201.660,233.398,30.762,-10.742
1741603772.754,-1000.000,-1000.000,-27.832,-1000.000
1741603772.758,-447.754,-287.109,46.387,-452.637
1741603772.762,885.254,962.891,117.188,885.254
1741603772.766,999.512,999.512,108.887,999.512
1741603772.770,374.512,604.004,98.145,99.121
1741603772.774,-919.434,-765.137,20.996,-1000.000
1741603772.777,-1000.000,-1000.000,-49.316,-1000.000
1741603772.781,-63.965,-1.953,92.773,-1.465
1741603772.785,999.512,999.512,151.855,999.512
1741603772.789,287.598,255.859,-42.480,151.367
1741603772.793,-1000.000,-1000.000,-120.605,-1000.000
1741603772.750,201.660,233.398,30.762,-10.742
1741603772.754,-1000.000,-1000.000,-27.832,-1000.000
1741603772.758,-447.754,-287.109,46.387,-452.637
1741603772.762,885.254,962.891,117.188,885.254
1741603772.766,999.512,999.512,108.887,999.512
1741603772.770,374.512,604.004,98.145,99.121
1741603772.774,-919.434,-765.137,20.996,-1000.000
1741603772.777,-1000.000,-1000.000,-49.316,-1000.000
1741603772.781,-63.965,-1.953,92.773,-1.465
1741603772.785,999.512,999.512,151.855,999.512
1741603772.789,287.598,255.859,-42.480,151.367
1741603772.793,-1000.000,-1000.000,-120.605,-1000.000
1741603772.795,-468.750,-585.449,-30.762,-466.797
1741603772.799,897.949,825.195,64.941,895.508
1741603772.803,999.512,999.512,25.879,999.512
1741603772.807,201.660,107.422,-116.211,1.465
1741603772.811,-1000.000,-1000.000,-200.684,-1000.000
1741603772.815,-278.320,-256.836,-40.039,-254.395
1741603772.819,999.512,999.512,41.016,999.512
1741603772.822,464.844,226.074,-126.465,356.934
1741603772.826,-1000.000,-1000.000,-252.441,-1000.000
1741603772.830,-833.496,-980.957,-194.824,-836.914
1741603772.834,832.031,595.215,-2.441,766.113
1741603772.838,715.332,399.414,-75.195,586.426
1741603772.795,-468.750,-585.449,-30.762,-466.797
1741603772.799,897.949,825.195,64.941,895.508
1741603772.803,999.512,999.512,25.879,999.512
1741603772.807,201.660,107.422,-116.211,1.465
1741603772.811,-1000.000,-1000.000,-200.684,-1000.000
1741603772.815,-278.320,-256.836,-40.039,-254.395
1741603772.819,999.512,999.512,41.016,999.512
1741603772.822,464.844,226.074,-126.465,356.934
1741603772.826,-1000.000,-1000.000,-252.441,-1000.000
1741603772.830,-833.496,-980.957,-194.824,-836.914
1741603772.834,832.031,595.215,-2.441,766.113
1741603772.838,715.332,399.414,-75.195,586.426
1741603772.886,991.699,914.062,0.000,979.980
1741603772.890,999.512,999.512,83.496,999.512
1741603772.894,230.469,195.312,-10.254,195.801
1741603772.898,-1000.000,-1000.000,-154.785,-1000.000
1741603772.902,-423.828,-506.348,-77.637,-375.488
1741603772.906,913.086,880.371,77.148,942.871
1741603772.910,999.512,999.512,84.961,999.512
1741603772.913,197.754,77.637,-160.156,61.035
1741603772.917,-1000.000,-1000.000,-284.180,-1000.000
1741603772.921,-261.719,-259.766,-55.664,-144.531
1741603772.925,999.512,999.512,42.969,999.512
1741603772.929,796.875,530.762,-39.062,725.098
1741603772.886,991.699,914.062,0.000,979.980
1741603772.890,999.512,999.512,83.496,999.512
1741603772.894,230.469,195.312,-10.254,195.801
1741603772.898,-1000.000,-1000.000,-154.785,-1000.000
1741603772.902,-423.828,-506.348,-77.637,-375.488
1741603772.906,913.086,880.371,77.148,942.871
1741603772.910,999.512,999.512,84.961,999.512
1741603772.913,197.754,77.637,-160.156,61.035
1741603772.917,-1000.000,-1000.000,-284.180,-1000.000
1741603772.921,-261.719,-259.766,-55.664,-144.531
1741603772.925,999.512,999.512,42.969,999.512
1741603772.929,796.875,530.762,-39.062,725.098
1741603772.930,-648.926,-888.672,-166.016,-753.906
1741603772.934,-1000.000,-1000.000,-163.574,-893.555
1741603772.938,235.840,92.285,25.879,493.164
1741603772.942,999.512,999.512,60.547,999.512
1741603772.946,601.562,434.570,-77.148,547.852
1741603772.950,-719.238,-854.980,-74.707,-799.805
1741603772.954,-1000.000,-1000.000,-65.430,-1000.000
1741603772.957,-203.613,-241.211,-72.266,126.465
1741603772.961,999.512,999.512,48.828,999.512
1741603772.965,468.750,362.305,-35.156,402.344
1741603772.969,-927.734,-971.191,-199.707,-995.117
1741603772.973,-1000.000,-1000.000,-181.641,-949.707
1741603772.930,-648.926,-888.672,-166.016,-753.906
1741603772.934,-1000.000,-1000.000,-163.574,-893.555
1741603772.938,235.840,92.285,25.879,493.164
1741603772.942,999.512,999.512,60.547,999.512
1741603772.946,601.562,434.570,-77.148,547.852
1741603772.950,-719.238,-854.980,-74.707,-799.805
1741603772.954,-1000.000,-1000.000,-65.430,-1000.000
1741603772.957,-203.613,-241.211,-72.266,126.465
1741603772.961,999.512,999.512,48.828,999.512
1741603772.965,468.750,362.305,-35.156,402.344
1741603772.969,-927.734,-971.191,-199.707,-995.117
1741603772.973,-1000.000,-1000.000,-181.641,-949.707
1741603772.975,-28.809,-128.906,-32.715,277.344
1741603772.979,999.512,999.512,65.430,999.512
1741603772.983,642.578,451.172,-7.812,617.188
1741603772.987,-864.258,-1000.000,-145.020,-891.113
1741603772.991,-958.496,-928.711,-107.422,-704.590
1741603772.995,489.258,457.031,93.750,726.562
1741603772.999,999.512,999.512,125.488,999.512
1741603773.002,190.430,171.875,-57.617,232.422
1741603773.006,-1000.000,-1000.000,-177.246,-1000.000
1741603773.010,-705.566,-857.910,-55.176,-475.098
1741603773.014,658.203,463.379,44.434,834.961
1741603773.018,999.512,999.512,68.848,999.512
1741603772.975,-28.809,-128.906,-32.715,277.344
1741603772.979,999.512,999.512,65.430,999.512
1741603772.983,642.578,451.172,-7.812,617.188
1741603772.987,-864.258,-1000.000,-145.020,-891.113
1741603772.991,-958.496,-928.711,-107.422,-704.590
1741603772.995,489.258,457.031,93.750,726.562
1741603772.999,999.512,999.512,125.488,999.512
1741603773.002,190.430,171.875,-57.617,232.422
1741603773.006,-1000.000,-1000.000,-177.246,-1000.000
1741603773.010,-705.566,-857.910,-55.176,-475.098
1741603773.014,658.203,463.379,44.434,834.961
1741603773.018,999.512,999.512,68.848,999.512
1741603773.035,386.719,298.340,-8.301,397.949
1741603773.039,-947.754,-970.703,-126.953,-1000.000
1741603773.043,-1000.000,-1000.000,-118.164,-791.504
1741603773.047,249.512,150.391,-11.230,608.398
1741603773.051,999.512,999.512,30.762,985.352
1741603773.055,999.512,999.512,79.102,999.512
1741603773.059,261.719,255.371,18.555,191.895
1741603773.062,-1000.000,-1000.000,-149.902,-1000.000
1741603773.066,-524.902,-492.188,-29.297,-366.699
1741603773.070,999.512,999.512,68.359,999.512
1741603773.074,724.121,434.570,-35.156,739.746
1741603773.078,-734.375,-953.125,-134.277,-727.051
1741603773.035,386.719,298.340,-8.301,397.949
1741603773.039,-947.754,-970.703,-126.953,-1000.000
1741603773.043,-1000.000,-1000.000,-118.164,-791.504
1741603773.047,249.512,150.391,-11.230,608.398
1741603773.051,999.512,999.512,30.762,985.352
1741603773.055,999.512,999.512,79.102,999.512
1741603773.059,261.719,255.371,18.555,191.895
1741603773.062,-1000.000,-1000.000,-149.902,-1000.000
1741603773.066,-524.902,-492.188,-29.297,-366.699
1741603773.070,999.512,999.512,68.359,999.512
1741603773.074,724.121,434.570,-35.156,739.746
1741603773.078,-734.375,-953.125,-134.277,-727.051
1741603773.080,-1000.000,-1000.000,-121.582,-1000.000
1741603773.084,-141.113,-215.820,1.465,202.637
1741603773.088,999.512,999.512,44.922,999.512
1741603773.092,465.332,356.445,-55.664,433.594
1741603773.096,-1000.000,-1000.000,-118.164,-1000.000
1741603773.100,-778.320,-634.766,-12.207,-638.184
1741603773.104,919.922,999.512,129.395,993.652
1741603773.107,650.391,437.012,2.930,641.602
1741603773.111,-862.793,-978.027,-129.395,-854.004
1741603773.115,-1000.000,-1000.000,-64.453,-1000.000
1741603773.119,-43.945,52.246,62.500,166.992
1741603773.123,999.512,736.328,21.973,999.512
1741603773.125,-272.949,-727.539,-128.906,-392.090
1741603773.129,-1000.000,-1000.000,-88.379,-1000.000
1741603773.133,-211.914,-212.891,36.133,-72.266
1741603773.137,999.512,999.512,93.262,999.512
1741603773.141,737.305,789.551,2.441,573.242
1741603773.145,-618.652,-554.199,-27.832,-726.562
1741603773.149,-1000.000,-1000.000,-17.090,-1000.000
1741603773.152,-742.676,-883.789,-29.297,-487.793
1741603773.156,588.379,427.734,66.895,788.574
1741603773.160,999.512,999.512,22.461,981.934
1741603773.164,-110.840,-231.445,-126.953,-280.762
1741603773.168,-1000.000,-1000.000,-170.898,-1000.000
1741603773.125,-272.949,-727.539,-128.906,-392.090
1741603773.129,-1000.000,-1000.000,-88.379,-1000.000
1741603773.133,-211.914,-212.891,36.133,-72.266
1741603773.137,999.512,999.512,93.262,999.512
1741603773.141,737.305,789.551,2.441,573.242
1741603773.145,-618.652,-554.199,-27.832,-726.562
1741603773.149,-1000.000,-1000.000,-17.090,-1000.000
1741603773.152,-742.676,-883.789,-29.297,-487.793
1741603773.156,588.379,427.734,66.895,788.574
1741603773.160,999.512,999.512,22.461,981.934
1741603773.164,-110.840,-231.445,-126.953,-280.762
1741603773.168,-1000.000,-1000.000,-170.898,-1000.000
1741603773.170,-268.066,-246.094,-3.906,-238.281
1741603773.174,999.512,999.512,122.070,999.512
1741603773.178,786.133,786.133,-22.461,635.254
1741603773.182,-583.008,-579.102,-156.738,-709.473
1741603773.186,-1000.000,-1000.000,-176.758,-1000.000
1741603773.190,-213.867,-152.344,7.812,-104.492
1741603773.194,999.512,999.512,142.578,999.512
1741603773.197,212.891,202.148,-93.262,181.152
1741603773.201,-1000.000,-1000.000,-211.426,-1000.000
1741603773.205,-934.570,-954.102,-66.406,-723.633
1741603773.209,355.469,324.707,33.691,611.816
1741603773.213,999.512,999.512,55.176,999.512
1741603773.215,172.363,140.625,-71.777,-42.480
1741603773.219,-1000.000,-1000.000,-152.832,-1000.000
1741603773.223,-726.562,-751.465,-63.477,-519.531
1741603773.227,652.344,611.816,58.105,806.152
1741603773.231,999.512,999.512,60.059,999.512
1741603773.235,132.812,137.695,-28.809,-19.531
1741603773.239,-1000.000,-1000.000,-68.359,-1000.000
1741603773.242,-1000.000,-1000.000,-103.027,-1000.000
1741603773.246,-88.867,-21.973,-20.020,54.199
1741603773.250,999.512,999.512,41.992,999.512
1741603773.254,186.523,177.246,-96.680,149.902
1741603773.258,-1000.000,-1000.000,-184.082,-1000.000
1741603773.260,-971.191,-962.891,-125.977,-754.395
1741603773.264,295.898,303.711,-9.766,542.969
1741603773.268,999.512,999.512,44.434,999.512
1741603773.272,195.312,193.848,-64.941,105.957
1741603773.276,-1000.000,-1000.000,-195.312,-1000.000
1741603773.280,-531.738,-447.266,-72.754,-427.734
1741603773.284,999.512,999.512,97.656,999.512
1741603773.287,463.867,293.457,-19.531,451.660
1741603773.291,-958.496,-1000.000,-215.820,-997.070
1741603773.295,-1000.000,-1000.000,-171.875,-1000.000
1741603773.299,-157.715,-203.125,-21.484,117.188
1741603773.303,999.512,999.512,17.090,999.512
1741603773.260,-971.191,-962.891,-125.977,-754.395
1741603773.264,295.898,303.711,-9.766,542.969
1741603773.268,999.512,999.512,44.434,999.512
1741603773.272,195.312,193.848,-64.941,105.957
1741603773.276,-1000.000,-1000.000,-195.312,-1000.000
1741603773.280,-531.738,-447.266,-72.754,-427.734
1741603773.284,999.512,999.512,97.656,999.512
1741603773.287,463.867,293.457,-19.531,451.660
1741603773.291,-958.496,-1000.000,-215.820,-997.070
1741603773.295,-1000.000,-1000.000,-171.875,-1000.000
1741603773.299,-157.715,-203.125,-21.484,117.188
1741603773.303,999.512,999.512,17.090,999.512
1741603773.305,724.121,744.141,-33.691,549.805
1741603773.309,-631.348,-607.910,-115.234,-757.812
1741603773.313,-1000.000,-1000.000,-157.227,-1000.000
1741603773.317,-155.273,-155.273,-39.062,-12.207
1741603773.321,960.938,962.402,55.176,999.512
1741603773.325,999.512,999.512,113.770,999.512
1741603773.329,233.887,232.910,18.555,99.609
1741603773.332,-1000.000,-1000.000,-164.551,-1000.000
1741603773.336,-566.895,-519.043,-42.480,-421.875
1741603773.340,948.242,999.512,85.938,999.512
1741603773.344,936.523,750.977,1.953,829.590
1741603773.348,-430.176,-635.254,-89.844,-503.418
1741603773.305,724.121,744.141,-33.691,549.805
1741603773.309,-631.348,-607.910,-115.234,-757.812
1741603773.313,-1000.000,-1000.000,-157.227,-1000.000
1741603773.317,-155.273,-155.273,-39.062,-12.207
1741603773.321,960.938,962.402,55.176,999.512
1741603773.325,999.512,999.512,113.770,999.512
1741603773.329,233.887,232.910,18.555,99.609
1741603773.332,-1000.000,-1000.000,-164.551,-1000.000
1741603773.336,-566.895,-519.043,-42.480,-421.875
1741603773.340,948.242,999.512,85.938,999.512
1741603773.344,936.523,750.977,1.953,829.590
1741603773.348,-430.176,-635.254,-89.844,-503.418
1741603773.350,-1000.000,-1000.000,-145.508,-1000.000
1741603773.354,-377.441,-460.449,-61.035,-287.598
1741603773.358,999.512,999.512,74.707,999.512
1741603773.362,845.215,672.852,9.277,753.418
1741603773.366,-680.664,-921.387,-99.121,-759.766
1741603773.370,-1000.000,-917.969,-15.625,-939.453
1741603773.374,444.824,694.336,101.562,603.027
1741603773.377,999.512,864.746,20.020,999.512
1741603773.381,-253.418,-594.238,-77.148,-372.070
1741603773.385,-1000.000,-1000.000,-69.824,-1000.000
1741603773.389,-181.152,-180.176,50.293,-156.738
1741603773.393,999.512,999.512,81.543,999.512
1741603773.350,-1000.000,-1000.000,-145.508,-1000.000
1741603773.354,-377.441,-460.449,-61.035,-287.598
1741603773.358,999.512,999.512,74.707,999.512
1741603773.362,845.215,672.852,9.277,753.418
1741603773.366,-680.664,-921.387,-99.121,-759.766
1741603773.370,-1000.000,-917.969,-15.625,-939.453
1741603773.374,444.824,694.336,101.562,603.027
1741603773.377,999.512,864.746,20.020,999.512
1741603773.381,-253.418,-594.238,-77.148,-372.070
1741603773.385,-1000.000,-1000.000,-69.824,-1000.000
1741603773.389,-181.152,-180.176,50.293,-156.738
1741603773.393,999.512,999.512,81.543,999.512
1741603773.410,999.512,999.512,-18.066,833.496
1741603773.414,-120.117,-106.445,-59.570,-363.770
1741603773.418,-1000.000,-1000.000,-74.219,-1000.000
1741603773.422,-598.633,-703.613,-21.484,-417.480
1741603773.426,727.539,607.910,45.410,829.590
1741603773.430,999.512,999.512,112.305,999.512
1741603773.434,143.555,192.871,-2.441,116.699
1741603773.437,-1000.000,-1000.000,-145.020,-1000.000
1741603773.441,-1000.000,-1000.000,-63.965,-881.836
1741603773.445,9.766,21.484,15.625,303.711
1741603773.449,999.512,999.512,39.551,999.512
1741603773.453,219.727,221.680,-62.500,177.246
1741603773.455,-1000.000,-1000.000,-87.402,-1000.000
1741603773.459,-598.633,-457.520,17.090,-522.461
1741603773.463,957.031,999.512,66.895,992.188
1741603773.467,873.047,682.617,3.906,766.113
1741603773.471,-553.223,-730.469,-83.496,-647.461
1741603773.475,-1000.000,-1000.000,-19.531,-1000.000
1741603773.479,-229.004,-192.871,67.383,-122.070
1741603773.482,999.512,999.512,20.020,999.512
1741603773.486,488.281,442.383,-76.660,390.137
1741603773.490,-903.809,-919.922,-110.352,-974.609
1741603773.494,-1000.000,-1000.000,-84.961,-1000.000
1741603773.498,-142.090,-147.461,20.996,88.867
1741603773.455,-1000.000,-1000.000,-87.402,-1000.000
1741603773.459,-598.633,-457.520,17.090,-522.461
1741603773.463,957.031,999.512,66.895,992.188
1741603773.467,873.047,682.617,3.906,766.113
1741603773.471,-553.223,-730.469,-83.496,-647.461
1741603773.475,-1000.000,-1000.000,-19.531,-1000.000
1741603773.479,-229.004,-192.871,67.383,-122.070
1741603773.482,999.512,999.512,20.020,999.512
1741603773.486,488.281,442.383,-76.660,390.137
1741603773.490,-903.809,-919.922,-110.352,-974.609
1741603773.494,-1000.000,-1000.000,-84.961,-1000.000
1741603773.498,-142.090,-147.461,20.996,88.867
1741603773.500,999.512,999.512,70.801,999.512
1741603773.504,604.004,637.207,0.000,495.117
1741603773.508,-768.066,-725.098,-98.633,-848.633
1741603773.512,-1000.000,-1000.000,-89.355,-1000.000
1741603773.516,-208.008,-207.031,14.160,31.738
1741603773.520,999.512,999.512,107.422,999.512
1741603773.524,855.957,849.121,68.359,699.219
1741603773.527,-445.801,-446.289,-143.555,-597.656
1741603773.531,-1000.000,-1000.000,-132.812,-1000.000
1741603773.535,-412.109,-521.484,-4.395,-196.777
1741603773.539,999.512,999.512,29.785,999.512
1741603773.543,633.789,501.465,-18.555,564.453
1741603773.545,-809.082,-936.035,-94.727,-841.797
1741603773.549,-1000.000,-1000.000,-51.758,-1000.000
1741603773.553,-225.586,-222.656,38.574,-30.273
1741603773.557,999.512,999.512,59.082,999.512
1741603773.561,512.207,544.434,-34.180,396.484
1741603773.565,-923.340,-950.195,-94.238,-976.562
1741603773.569,-1000.000,-1000.000,-77.637,-1000.000
1741603773.572,105.957,364.746,8.789,250.488
1741603773.576,999.512,999.512,-3.418,999.512
1741603773.580,88.379,15.137,-140.625,-77.148
1741603773.584,-1000.000,-1000.000,-187.988,-1000.000
1741603773.588,-1000.000,-1000.000,-142.578,-812.500
1741603773.545,-809.082,-936.035,-94.727,-841.797
1741603773.549,-1000.000,-1000.000,-51.758,-1000.000
1741603773.553,-225.586,-222.656,38.574,-30.273
1741603773.557,999.512,999.512,59.082,999.512
1741603773.561,512.207,544.434,-34.180,396.484
1741603773.565,-923.340,-950.195,-94.238,-976.562
1741603773.569,-1000.000,-1000.000,-77.637,-1000.000
1741603773.572,105.957,364.746,8.789,250.488
1741603773.576,999.512,999.512,-3.418,999.512
1741603773.580,88.379,15.137,-140.625,-77.148
1741603773.584,-1000.000,-1000.000,-187.988,-1000.000
1741603773.588,-1000.000,-1000.000,-142.578,-812.500
1741603773.590,141.602,63.965,-9.277,400.879
1741603773.594,999.512,999.512,51.758,999.512
1741603773.598,177.246,220.215,-65.918,128.418
1741603773.602,-1000.000,-1000.000,-177.734,-1000.000
1741603773.606,-1000.000,-949.707,-138.184,-874.512
1741603773.610,255.859,379.883,62.988,456.055
1741603773.614,999.512,999.512,78.125,999.512
1741603773.617,38.086,-0.488,-152.832,-142.090
1741603773.621,-1000.000,-1000.000,-165.039,-1000.000
1741603773.625,-313.477,-283.203,1.953,-290.527
1741603773.629,999.512,999.512,31.738,999.512
1741603773.633,732.422,677.246,-45.410,581.055
1741603773.590,141.602,63.965,-9.277,400.879
1741603773.594,999.512,999.512,51.758,999.512
1741603773.598,177.246,220.215,-65.918,128.418
1741603773.602,-1000.000,-1000.000,-177.734,-1000.000
1741603773.606,-1000.000,-949.707,-138.184,-874.512
1741603773.610,255.859,379.883,62.988,456.055
1741603773.614,999.512,999.512,78.125,999.512
1741603773.617,38.086,-0.488,-152.832,-142.090
1741603773.621,-1000.000,-1000.000,-165.039,-1000.000
1741603773.625,-313.477,-283.203,1.953,-290.527
1741603773.629,999.512,999.512,31.738,999.512
1741603773.633,732.422,677.246,-45.410,581.055
1741603773.635,-655.273,-703.613,-160.156,-796.387
1741603773.639,-1000.000,-1000.000,-182.129,-1000.000
1741603773.643,-208.984,-203.125,-47.852,-65.918
1741603773.647,999.512,999.512,6.836,999.512
1741603773.651,817.871,853.027,-54.199,592.285
1741603773.655,-523.926,-454.102,-109.375,-722.656
1741603773.659,-1000.000,-1000.000,-137.207,-1000.000
1741603773.662,-153.809,-227.051,-113.281,-61.523
1741603773.666,963.379,939.941,-21.484,999.512
1741603773.670,999.512,999.512,-9.766,999.512
1741603773.674,231.445,221.191,-79.102,53.711
1741603773.678,-1000.000,-1000.000,-147.949,-1000.000
1741603773.635,-655.273,-703.613,-160.156,-796.387
1741603773.639,-1000.000,-1000.000,-182.129,-1000.000
1741603773.643,-208.984,-203.125,-47.852,-65.918
1741603773.647,999.512,999.512,6.836,999.512
1741603773.651,817.871,853.027,-54.199,592.285
1741603773.655,-523.926,-454.102,-109.375,-722.656
1741603773.659,-1000.000,-1000.000,-137.207,-1000.000
1741603773.662,-153.809,-227.051,-113.281,-61.523
1741603773.666,963.379,939.941,-21.484,999.512
1741603773.670,999.512,999.512,-9.766,999.512
1741603773.674,231.445,221.191,-79.102,53.711
1741603773.678,-1000.000,-1000.000,-147.949,-1000.000
1741603773.680,-608.887,-683.594,-112.793,-466.797
1741603773.684,783.691,703.125,32.715,858.398
1741603773.688,999.512,999.512,31.738,999.512
1741603773.692,192.871,188.477,-108.398,93.750
1741603773.696,-1000.000,-1000.000,-168.945,-1000.000
1741603773.700,-310.059,-278.320,-1.465,-281.250
1741603773.704,999.512,999.512,108.398,999.512
1741603773.707,437.012,291.504,-61.523,407.715
1741603773.711,-959.473,-1000.000,-149.902,-1000.000
1741603773.715,-1000.000,-1000.000,-107.422,-928.223
1741603773.719,60.059,-48.340,-43.945,316.895
1741603773.723,999.512,999.512,-0.977,999.512
1741603773.680,-608.887,-683.594,-112.793,-466.797
1741603773.684,783.691,703.125,32.715,858.398
1741603773.688,999.512,999.512,31.738,999.512
1741603773.692,192.871,188.477,-108.398,93.750
1741603773.696,-1000.000,-1000.000,-168.945,-1000.000
1741603773.700,-310.059,-278.320,-1.465,-281.250
1741603773.704,999.512,999.512,108.398,999.512
1741603773.707,437.012,291.504,-61.523,407.715
1741603773.711,-959.473,-1000.000,-149.902,-1000.000
1741603773.715,-1000.000,-1000.000,-107.422,-928.223
1741603773.719,60.059,-48.340,-43.945,316.895
1741603773.723,999.512,999.512,-0.977,999.512
1741603773.726,989.258,978.516,-2.930,792.969
1741603773.730,-112.305,-116.699,-43.457,-363.281
1741603773.734,-1000.000,-1000.000,-127.930,-1000.000
1741603773.738,-293.457,-452.637,-78.613,-222.168
1741603773.742,916.992,836.914,12.695,941.895
1741603773.746,999.512,999.512,105.957,999.512
1741603773.750,312.500,366.211,12.695,249.512
1741603773.753,-967.773,-919.434,-167.480,-1000.000
1741603773.757,-1000.000,-1000.000,-136.719,-929.688
1741603773.761,-1.465,-81.543,-11.719,252.441
1741603773.765,999.512,999.512,69.336,999.512
1741603773.769,411.621,296.387,-3.418,393.555
1741603773.726,989.258,978.516,-2.930,792.969
1741603773.730,-112.305,-116.699,-43.457,-363.281
1741603773.734,-1000.000,-1000.000,-127.930,-1000.000
1741603773.738,-293.457,-452.637,-78.613,-222.168
1741603773.742,916.992,836.914,12.695,941.895
1741603773.746,999.512,999.512,105.957,999.512
1741603773.750,312.500,366.211,12.695,249.512
1741603773.753,-967.773,-919.434,-167.480,-1000.000
1741603773.757,-1000.000,-1000.000,-136.719,-929.688
1741603773.761,-1.465,-81.543,-11.719,252.441
1741603773.765,999.512,999.512,69.336,999.512
1741603773.769,411.621,296.387,-3.418,393.555
1741603773.785,-934.570,-995.117,-130.371,-983.398
1741603773.789,-1000.000,-1000.000,-87.402,-965.332
1741603773.793,9.277,-20.996,43.945,261.719
1741603773.797,999.512,999.512,133.789,999.512
1741603773.801,241.211,251.953,16.602,199.219
1741603773.805,-1000.000,-1000.000,-94.238,-1000.000
1741603773.809,-995.605,-979.980,-28.320,-1000.000
1741603773.812,-1000.000,-1000.000,-87.891,-752.441
1741603773.816,220.703,129.883,61.523,516.602
1741603773.820,999.512,999.512,125.488,949.219
1741603773.824,-127.930,-118.164,-50.293,-407.227
1741603773.828,-1000.000,-1000.000,-64.941,-1000.000
1741603773.830,-996.094,-882.812,-6.836,-908.691
1741603773.834,242.188,391.113,120.605,400.391
1741603773.838,999.512,999.512,156.738,956.543
1741603773.842,-119.141,-29.785,-5.371,-429.688
1741603773.846,-1000.000,-1000.000,-87.402,-1000.000
1741603773.850,-270.508,-222.168,43.945,-300.293
1741603773.854,999.512,999.512,202.637,999.512
1741603773.857,233.398,264.648,64.941,197.266
1741603773.861,-1000.000,-992.676,-105.957,-1000.000
1741603773.865,-1000.000,-1000.000,-64.941,-1000.000
1741603773.869,-814.453,-712.402,-20.020,-729.492
1741603773.873,528.809,621.094,61.523,651.367
1741603773.830,-996.094,-882.812,-6.836,-908.691
1741603773.834,242.188,391.113,120.605,400.391
1741603773.838,999.512,999.512,156.738,956.543
1741603773.842,-119.141,-29.785,-5.371,-429.688
1741603773.846,-1000.000,-1000.000,-87.402,-1000.000
1741603773.850,-270.508,-222.168,43.945,-300.293
1741603773.854,999.512,999.512,202.637,999.512
1741603773.857,233.398,264.648,64.941,197.266
1741603773.861,-1000.000,-992.676,-105.957,-1000.000
1741603773.865,-1000.000,-1000.000,-64.941,-1000.000
1741603773.869,-814.453,-712.402,-20.020,-729.492
1741603773.873,528.809,621.094,61.523,651.367
1741603773.875,999.512,999.512,119.141,983.887
1741603773.879,-109.375,-15.625,31.738,-377.930
1741603773.883,-1000.000,-1000.000,-52.246,-1000.000
1741603773.887,-1000.000,-1000.000,-33.203,-1000.000
1741603773.891,-273.438,-252.441,62.988,-102.539
1741603773.895,999.512,999.512,175.781,999.512
1741603773.899,291.504,393.555,36.621,214.355
1741603773.902,-1000.000,-1000.000,-172.363,-1000.000
1741603773.906,-810.547,-529.297,-56.152,-738.770
1741603773.910,848.633,999.512,99.609,877.930
1741603773.914,467.773,373.047,-48.828,395.996
1741603773.918,-990.723,-987.305,-209.473,-1000.000
1741603773.875,999.512,999.512,119.141,983.887
1741603773.879,-109.375,-15.625,31.738,-377.930
1741603773.883,-1000.000,-1000.000,-52.246,-1000.000
1741603773.887,-1000.000,-1000.000,-33.203,-1000.000
1741603773.891,-273.438,-252.441,62.988,-102.539
1741603773.895,999.512,999.512,175.781,999.512
1741603773.899,291.504,393.555,36.621,214.355
1741603773.902,-1000.000,-1000.000,-172.363,-1000.000
1741603773.906,-810.547,-529.297,-56.152,-738.770
1741603773.910,848.633,999.512,99.609,877.930
1741603773.914,467.773,373.047,-48.828,395.996
1741603773.918,-990.723,-987.305,-209.473,-1000.000
1741603773.920,-1000.000,-1000.000,-162.598,-1000.000
1741603773.924,-241.211,-234.375,-10.254,-148.438
1741603773.928,999.512,999.512,65.918,999.512
1741603773.932,256.348,258.301,-74.219,225.098
1741603773.936,-1000.000,-1000.000,-168.457,-1000.000
1741603773.940,-293.945,-228.027,3.906,-307.129
1741603773.944,999.512,999.512,89.844,999.512
1741603773.947,164.062,178.711,-98.145,153.320
1741603773.951,-1000.000,-1000.000,-144.531,-1000.000
1741603773.955,-1000.000,-1000.000,-100.098,-1000.000
1741603773.959,-395.020,-361.328,-84.473,-324.219
1741603773.963,999.512,999.512,43.945,999.512
1741603773.920,-1000.000,-1000.000,-162.598,-1000.000
1741603773.924,-241.211,-234.375,-10.254,-148.438
1741603773.928,999.512,999.512,65.918,999.512
1741603773.932,256.348,258.301,-74.219,225.098
1741603773.936,-1000.000,-1000.000,-168.457,-1000.000
1741603773.940,-293.945,-228.027,3.906,-307.129
1741603773.944,999.512,999.512,89.844,999.512
1741603773.947,164.062,178.711,-98.145,153.320
1741603773.951,-1000.000,-1000.000,-144.531,-1000.000
1741603773.955,-1000.000,-1000.000,-100.098,-1000.000
1741603773.959,-395.020,-361.328,-84.473,-324.219
1741603773.963,999.512,999.512,43.945,999.512
1741603773.965,826.172,861.328,1.953,625.977
1741603773.969,-557.617,-504.395,-112.305,-711.426
1741603773.973,-1000.000,-1000.000,-119.141,-1000.000
1741603773.977,-837.402,-884.766,-108.887,-602.539
1741603773.981,392.578,300.781,-26.367,623.535
1741603773.985,999.512,999.512,48.828,999.512
1741603773.989,191.895,331.543,-17.090,136.719
1741603773.992,-1000.000,-1000.000,-162.598,-1000.000
1741603773.996,-1000.000,-994.629,-149.414,-866.699
1741603774.000,158.691,301.758,-17.090,397.461
1741603774.004,999.512,999.512,-0.488,999.512
1741603774.008,193.848,195.801,-69.824,130.371
1741603773.965,826.172,861.328,1.953,625.977
1741603773.969,-557.617,-504.395,-112.305,-711.426
1741603773.973,-1000.000,-1000.000,-119.141,-1000.000
1741603773.977,-837.402,-884.766,-108.887,-602.539
1741603773.981,392.578,300.781,-26.367,623.535
1741603773.985,999.512,999.512,48.828,999.512
1741603773.989,191.895,331.543,-17.090,136.719
1741603773.992,-1000.000,-1000.000,-162.598,-1000.000
1741603773.996,-1000.000,-994.629,-149.414,-866.699
1741603774.000,158.691,301.758,-17.090,397.461
1741603774.004,999.512,999.512,-0.488,999.512
1741603774.008,193.848,195.801,-69.824,130.371
1741603774.011,-1000.000,-1000.000,-154.297,-1000.000
1741603774.015,-727.539,-631.836,-71.289,-637.207
1741603774.019,812.012,961.914,73.730,873.047
1741603774.023,983.887,729.004,-14.160,875.488
1741603774.027,-710.938,-988.770,-167.480,-779.297
1741603774.031,-751.953,-493.164,-53.223,-714.844
1741603774.035,808.594,951.172,88.379,846.191
1741603774.038,999.512,999.512,-22.461,999.512
1741603774.042,96.191,97.168,-154.785,-132.812
1741603774.046,-1000.000,-1000.000,-168.945,-1000.000
1741603774.050,-400.879,-467.285,-43.945,-287.598
1741603774.054,902.832,862.305,15.137,941.895
1741603774.055,999.512,999.512,-9.766,999.512
1741603774.059,260.254,304.199,-62.500,213.379
1741603774.063,-1000.000,-1000.000,-133.789,-1000.000
1741603774.067,-862.305,-898.438,-21.484,-654.297
1741603774.071,465.332,432.617,64.941,653.320
1741603774.075,999.512,999.512,60.547,999.512
1741603774.079,476.562,429.199,2.930,424.805
1741603774.082,-966.797,-1000.000,-183.594,-1000.000
1741603774.086,-930.176,-865.723,-104.492,-725.098
1741603774.090,481.934,542.480,9.766,664.062
1741603774.094,999.512,999.512,-24.902,999.512
1741603774.098,188.965,188.477,-120.605,159.180
1741603774.100,-1000.000,-1000.000,-209.961,-1000.000
1741603774.104,-669.434,-700.684,-109.375,-541.992
1741603774.108,727.051,706.055,5.859,826.172
1741603774.112,999.512,999.512,-14.160,999.512
1741603774.116,161.133,24.414,-122.070,-44.922
1741603774.120,-1000.000,-1000.000,-129.395,-1000.000
1741603774.124,-132.324,118.164,41.992,41.016
1741603774.127,999.512,770.996,13.184,999.512
1741603774.131,-286.133,-746.094,-184.082,-440.918
1741603774.135,-1000.000,-1000.000,-151.367,-1000.000
1741603774.139,-90.332,-150.879,-20.996,155.762
1741603774.143,999.512,999.512,3.906,999.512
1741603774.160,999.512,999.512,-19.043,803.711
1741603774.164,-162.109,-167.480,-85.449,-404.785
1741603774.168,-1000.000,-1000.000,-145.508,-1000.000
1741603774.172,-160.645,-161.133,-52.246,-77.637
1741603774.176,975.586,976.562,36.621,999.512
1741603774.180,999.512,999.512,63.477,999.512
1741603774.184,229.004,227.539,-51.758,42.480
1741603774.187,-1000.000,-1000.000,-229.492,-1000.000
1741603774.191,-394.531,-361.328,-72.754,-324.707
1741603774.195,999.512,999.512,83.984,999.512
1741603774.199,628.418,496.094,-44.434,547.363
1741603774.203,-801.270,-886.719,-173.340,-882.324
1741603774.160,999.512,999.512,-19.043,803.711
1741603774.164,-162.109,-167.480,-85.449,-404.785
1741603774.168,-1000.000,-1000.000,-145.508,-1000.000
1741603774.172,-160.645,-161.133,-52.246,-77.637
1741603774.176,975.586,976.562,36.621,999.512
1741603774.180,999.512,999.512,63.477,999.512
1741603774.184,229.004,227.539,-51.758,42.480
1741603774.187,-1000.000,-1000.000,-229.492,-1000.000
1741603774.191,-394.531,-361.328,-72.754,-324.707
1741603774.195,999.512,999.512,83.984,999.512
1741603774.199,628.418,496.094,-44.434,547.363
1741603774.203,-801.270,-886.719,-173.340,-882.324
1741603774.205,-1000.000,-1000.000,-153.809,-1000.000
1741603774.209,-142.578,-197.754,-30.273,105.469
1741603774.213,999.512,999.512,30.762,999.512
1741603774.217,654.297,659.668,-16.602,505.859
1741603774.221,-853.516,-895.508,-124.023,-950.684
1741603774.225,-1000.000,-917.480,-79.102,-859.863
1741603774.229,609.863,805.664,69.824,748.535
1741603774.232,806.641,508.789,-15.137,740.234
1741603774.236,-732.422,-963.867,-154.297,-772.461
1741603774.240,-1000.000,-1000.000,-151.855,-1000.000
1741603774.244,-225.098,-238.281,-43.945,-55.664
1741603774.248,999.512,999.512,36.621,999.512
1741603774.205,-1000.000,-1000.000,-153.809,-1000.000
1741603774.209,-142.578,-197.754,-30.273,105.469
1741603774.213,999.512,999.512,30.762,999.512
1741603774.217,654.297,659.668,-16.602,505.859
1741603774.221,-853.516,-895.508,-124.023,-950.684
1741603774.225,-1000.000,-917.480,-79.102,-859.863
1741603774.229,609.863,805.664,69.824,748.535
1741603774.232,806.641,508.789,-15.137,740.234
1741603774.236,-732.422,-963.867,-154.297,-772.461
1741603774.240,-1000.000,-1000.000,-151.855,-1000.000
1741603774.244,-225.098,-238.281,-43.945,-55.664
1741603774.248,999.512,999.512,36.621,999.512
1741603774.250,565.430,479.492,-61.035,446.289
1741603774.254,-828.125,-882.812,-151.367,-909.668
1741603774.258,-1000.000,-1000.000,-131.348,-1000.000
1741603774.262,-150.879,-165.039,-105.957,53.711
1741603774.266,962.891,962.402,-58.105,999.512
1741603774.270,999.512,999.512,39.551,976.562
1741603774.274,217.285,220.215,-33.203,-15.625
1741603774.277,-1000.000,-1000.000,-232.422,-1000.000
1741603774.281,-308.594,-291.016,-93.750,-289.062
1741603774.285,999.512,999.512,36.133,999.512
1741603774.289,999.512,905.762,-35.645,877.441
1741603774.293,-202.637,-371.582,-90.820,-386.719
1741603774.296,-1000.000,-1000.000,-140.137,-1000.000
1741603774.300,-251.953,-275.391,-22.461,-192.871
1741603774.304,999.512,999.512,84.961,999.512
1741603774.308,432.617,339.844,-83.984,382.812
1741603774.312,-1000.000,-1000.000,-177.734,-1000.000
1741603774.316,-992.188,-884.277,-52.246,-837.891
1741603774.320,496.094,695.801,14.160,644.531
1741603774.323,999.512,728.027,-36.621,933.105
1741603774.327,-434.082,-779.785,-162.109,-521.484
1741603774.331,-1000.000,-1000.000,-163.574,-1000.000
1741603774.335,-157.715,-164.062,-46.387,-30.762
1741603774.339,972.656,966.309,-20.996,999.512
1741603774.296,-1000.000,-1000.000,-140.137,-1000.000
1741603774.300,-251.953,-275.391,-22.461,-192.871
1741603774.304,999.512,999.512,84.961,999.512
1741603774.308,432.617,339.844,-83.984,382.812
1741603774.312,-1000.000,-1000.000,-177.734,-1000.000
1741603774.316,-992.188,-884.277,-52.246,-837.891
1741603774.320,496.094,695.801,14.160,644.531
1741603774.323,999.512,728.027,-36.621,933.105
1741603774.327,-434.082,-779.785,-162.109,-521.484
1741603774.331,-1000.000,-1000.000,-163.574,-1000.000
1741603774.335,-157.715,-164.062,-46.387,-30.762
1741603774.339,972.656,966.309,-20.996,999.512
1741603774.340,999.512,999.512,-34.180,948.242
1741603774.344,162.598,172.363,-77.637,-83.496
1741603774.348,-1000.000,-1000.000,-120.117,-1000.000
1741603774.352,-598.145,-709.473,-51.270,-409.180
1741603774.356,761.719,638.672,66.895,854.492
1741603774.360,999.512,999.512,109.375,999.512
1741603774.364,298.340,369.629,-36.133,239.258
1741603774.367,-929.688,-891.113,-121.094,-1000.000
1741603774.371,-1000.000,-1000.000,-61.523,-944.336
1741603774.375,-229.980,-244.141,-34.180,133.789
1741603774.379,999.512,999.512,15.625,999.512
1741603774.383,494.629,351.562,-42.480,462.891
1741603774.385,-914.062,-993.652,-104.004,-934.570
1741603774.389,-1000.000,-1000.000,-94.727,-1000.000
1741603774.393,35.156,50.293,-20.020,213.867
1741603774.397,999.512,999.512,0.977,999.512
1741603774.401,999.512,999.512,-57.617,804.688
1741603774.405,-27.832,81.543,-42.480,-324.707
1741603774.409,-1000.000,-1000.000,-27.344,-1000.000
1741603774.412,-183.105,-203.125,-17.578,-133.789
1741603774.416,999.512,999.512,-28.809,999.512
1741603774.420,999.512,999.512,-21.973,955.566
1741603774.424,33.691,-66.406,-91.309,-142.578
1741603774.428,-1000.000,-1000.000,-161.133,-1000.000
1741603774.385,-914.062,-993.652,-104.004,-934.570
1741603774.389,-1000.000,-1000.000,-94.727,-1000.000
1741603774.393,35.156,50.293,-20.020,213.867
1741603774.397,999.512,999.512,0.977,999.512
1741603774.401,999.512,999.512,-57.617,804.688
1741603774.405,-27.832,81.543,-42.480,-324.707
1741603774.409,-1000.000,-1000.000,-27.344,-1000.000
1741603774.412,-183.105,-203.125,-17.578,-133.789
1741603774.416,999.512,999.512,-28.809,999.512
1741603774.420,999.512,999.512,-21.973,955.566
1741603774.424,33.691,-66.406,-91.309,-142.578
1741603774.428,-1000.000,-1000.000,-161.133,-1000.000
1741603774.430,-286.621,-289.062,-66.895,-232.910
1741603774.434,948.242,938.477,35.645,979.492
1741603774.438,999.512,999.512,35.156,999.512
1741603774.442,222.656,217.773,-54.688,83.008
1741603774.446,-1000.000,-1000.000,-169.434,-1000.000
1741603774.450,-445.312,-356.445,-77.148,-399.414
1741603774.454,999.512,999.512,60.059,999.512
1741603774.457,511.719,315.918,-94.727,488.281
1741603774.461,-1000.000,-1000.000,-152.832,-1000.000
1741603774.465,-968.750,-1000.000,-42.480,-782.715
1741603774.469,410.156,352.539,5.859,612.305
1741603774.473,999.512,999.512,-29.785,999.512
1741603774.430,-286.621,-289.062,-66.895,-232.910
1741603774.434,948.242,938.477,35.645,979.492
1741603774.438,999.512,999.512,35.156,999.512
1741603774.442,222.656,217.773,-54.688,83.008
1741603774.446,-1000.000,-1000.000,-169.434,-1000.000
1741603774.450,-445.312,-356.445,-77.148,-399.414
1741603774.454,999.512,999.512,60.059,999.512
1741603774.457,511.719,315.918,-94.727,488.281
1741603774.461,-1000.000,-1000.000,-152.832,-1000.000
1741603774.465,-968.750,-1000.000,-42.480,-782.715
1741603774.469,410.156,352.539,5.859,612.305
1741603774.473,999.512,999.512,-29.785,999.512
1741603774.475,79.590,-220.703,-98.145,-83.496
1741603774.479,-1000.000,-1000.000,-117.676,-1000.000
1741603774.483,-192.871,-170.410,-4.883,-134.277
1741603774.487,998.535,979.980,67.871,999.512
1741603774.491,999.512,999.512,-25.879,856.934
1741603774.495,155.762,192.871,-68.848,-223.145
1741603774.499,-1000.000,-1000.000,-102.539,-1000.000
1741603774.502,-868.652,-999.023,-123.535,-671.875
1741603774.506,419.922,214.355,-13.184,571.777
1741603774.510,999.512,999.512,52.734,999.512
1741603774.514,439.453,441.895,-64.453,337.891
1741603774.518,-895.996,-883.789,-138.184,-1000.000
1741603774.475,79.590,-220.703,-98.145,-83.496
1741603774.479,-1000.000,-1000.000,-117.676,-1000.000
1741603774.483,-192.871,-170.410,-4.883,-134.277
1741603774.487,998.535,979.980,67.871,999.512
1741603774.491,999.512,999.512,-25.879,856.934
1741603774.495,155.762,192.871,-68.848,-223.145
1741603774.499,-1000.000,-1000.000,-102.539,-1000.000
1741603774.502,-868.652,-999.023,-123.535,-671.875
1741603774.506,419.922,214.355,-13.184,571.777
1741603774.510,999.512,999.512,52.734,999.512
1741603774.514,439.453,441.895,-64.453,337.891
1741603774.518,-895.996,-883.789,-138.184,-1000.000
1741603774.525,-1000.000,-1000.000,-66.406,-882.812
1741603774.529,58.105,-43.945,5.371,356.934
1741603774.533,999.512,999.512,39.551,999.512
1741603774.537,253.906,223.633,-79.102,243.164
1741603774.541,-1000.000,-1000.000,-150.391,-1000.000
1741603774.545,-276.367,-236.816,64.453,-260.742
1741603774.549,999.512,999.512,168.457,999.512
1741603774.552,206.543,177.246,-88.379,206.543
1741603774.556,-1000.000,-1000.000,-144.043,-1000.000
1741603774.560,-1000.000,-1000.000,-39.551,-775.391
1741603774.564,147.461,22.949,-19.043,455.078
1741603774.568,999.512,999.512,71.289,999.512
1741603774.525,-1000.000,-1000.000,-66.406,-882.812
1741603774.529,58.105,-43.945,5.371,356.934
1741603774.533,999.512,999.512,39.551,999.512
1741603774.537,253.906,223.633,-79.102,243.164
1741603774.541,-1000.000,-1000.000,-150.391,-1000.000
1741603774.545,-276.367,-236.816,64.453,-260.742
1741603774.549,999.512,999.512,168.457,999.512
1741603774.552,206.543,177.246,-88.379,206.543
1741603774.556,-1000.000,-1000.000,-144.043,-1000.000
1741603774.560,-1000.000,-1000.000,-39.551,-775.391
1741603774.564,147.461,22.949,-19.043,455.078
1741603774.568,999.512,999.512,71.289,999.512
1741603774.569,240.723,248.047,-19.043,203.125
1741603774.573,-1000.000,-1000.000,-178.711,-1000.000
1741603774.577,-538.574,-433.105,-73.730,-474.121
1741603774.581,854.492,905.762,39.062,915.527
1741603774.585,999.512,999.512,54.688,999.512
1741603774.589,132.812,168.457,47.363,-96.680
1741603774.593,-994.629,-986.816,-61.035,-1000.000
1741603774.596,-1000.000,-1000.000,-124.512,-1000.000
1741603774.600,-249.512,-252.930,-22.461,-56.152
1741603774.604,999.512,999.512,86.914,999.512
1741603774.608,652.832,676.758,28.809,498.047
1741603774.612,-744.141,-713.867,-92.285,-851.562
1741603774.569,240.723,248.047,-19.043,203.125
1741603774.573,-1000.000,-1000.000,-178.711,-1000.000
1741603774.577,-538.574,-433.105,-73.730,-474.121
1741603774.581,854.492,905.762,39.062,915.527
1741603774.585,999.512,999.512,54.688,999.512
1741603774.589,132.812,168.457,47.363,-96.680
1741603774.593,-994.629,-986.816,-61.035,-1000.000
1741603774.596,-1000.000,-1000.000,-124.512,-1000.000
1741603774.600,-249.512,-252.930,-22.461,-56.152
1741603774.604,999.512,999.512,86.914,999.512
1741603774.608,652.832,676.758,28.809,498.047
1741603774.612,-744.141,-713.867,-92.285,-851.562
1741603774.626,-1000.000,-1000.000,-128.418,-1000.000
1741603774.630,-172.852,-141.113,12.207,17.578
1741603774.634,999.512,999.512,112.793,999.512
1741603774.638,407.227,355.957,-36.133,341.309
1741603774.642,-1000.000,-1000.000,-108.887,-1000.000
1741603774.646,-535.156,-451.172,57.617,-457.031
1741603774.650,883.789,913.086,96.680,971.191
1741603774.653,999.512,999.512,15.137,885.254
1741603774.657,161.133,201.172,5.859,-211.426
1741603774.661,-1000.000,-1000.000,-101.074,-1000.000
1741603774.665,-767.578,-872.070,-114.258,-564.941
1741603774.669,648.438,566.406,16.113,726.074
1741603774.670,-218.750,-112.305,-30.762,-320.801
1741603774.674,-1000.000,-1000.000,-179.199,-1000.000
1741603774.678,-258.301,-347.168,-85.938,-223.145
1741603774.682,925.293,889.160,78.125,999.023
1741603774.686,999.512,999.512,17.578,915.527
1741603774.690,157.715,173.340,-83.496,-190.430
1741603774.694,-1000.000,-1000.000,-99.609,-1000.000
1741603774.697,-913.574,-1000.000,-98.145,-684.082
1741603774.701,393.066,194.336,-23.926,615.723
1741603774.705,999.512,999.512,39.062,999.512
1741603774.709,142.090,74.219,-90.820,-83.984
1741603774.713,-1000.000,-1000.000,-158.203,-1000.000
1741603774.670,-218.750,-112.305,-30.762,-320.801
1741603774.674,-1000.000,-1000.000,-179.199,-1000.000
1741603774.678,-258.301,-347.168,-85.938,-223.145
1741603774.682,925.293,889.160,78.125,999.023
1741603774.686,999.512,999.512,17.578,915.527
1741603774.690,157.715,173.340,-83.496,-190.430
1741603774.694,-1000.000,-1000.000,-99.609,-1000.000
1741603774.697,-913.574,-1000.000,-98.145,-684.082
1741603774.701,393.066,194.336,-23.926,615.723
1741603774.705,999.512,999.512,39.062,999.512
1741603774.709,142.090,74.219,-90.820,-83.984
1741603774.713,-1000.000,-1000.000,-158.203,-1000.000
1741603774.730,-362.793,-380.371,-43.945,-303.223
1741603774.734,965.820,949.219,53.711,999.512
1741603774.738,999.512,999.512,52.246,919.922
1741603774.742,-35.156,-56.641,-46.387,-283.691
1741603774.746,-1000.000,-1000.000,-117.676,-1000.000
1741603774.750,-232.910,-106.445,14.648,-153.809
1741603774.754,999.512,999.512,139.648,999.512
1741603774.757,270.020,272.949,58.105,215.332
1741603774.761,-990.723,-969.238,-84.473,-1000.000
1741603774.765,-1000.000,-1000.000,-125.488,-1000.000
1741603774.769,-319.336,-369.629,-16.602,-274.414
1741603774.773,999.512,996.094,121.094,999.512
1741603774.730,-362.793,-380.371,-43.945,-303.223
1741603774.734,965.820,949.219,53.711,999.512
1741603774.738,999.512,999.512,52.246,919.922
1741603774.742,-35.156,-56.641,-46.387,-283.691
1741603774.746,-1000.000,-1000.000,-117.676,-1000.000
1741603774.750,-232.910,-106.445,14.648,-153.809
1741603774.754,999.512,999.512,139.648,999.512
1741603774.757,270.020,272.949,58.105,215.332
1741603774.761,-990.723,-969.238,-84.473,-1000.000
1741603774.765,-1000.000,-1000.000,-125.488,-1000.000
1741603774.769,-319.336,-369.629,-16.602,-274.414
1741603774.773,999.512,996.094,121.094,999.512
1741603774.775,870.117,919.922,92.773,656.738
1741603774.779,-450.684,-387.695,-21.973,-653.809
1741603774.783,-1000.000,-1000.000,-69.824,-1000.000
1741603774.787,-417.969,-413.574,17.578,-333.984
1741603774.791,986.816,998.047,105.957,999.512
1741603774.795,856.934,826.660,73.242,685.059
1741603774.799,-509.277,-542.480,-25.879,-659.180
1741603774.802,-1000.000,-1000.000,-78.125,-1000.000
1741603774.806,-591.309,-625.000,-39.551,-485.352
1741603774.810,748.535,708.496,91.309,855.469
1741603774.814,999.512,999.512,116.211,981.934
1741603774.818,-22.461,-3.418,-45.898,-240.723
1741603774.775,870.117,919.922,92.773,656.738
1741603774.779,-450.684,-387.695,-21.973,-653.809
1741603774.783,-1000.000,-1000.000,-69.824,-1000.000
1741603774.787,-417.969,-413.574,17.578,-333.984
1741603774.791,986.816,998.047,105.957,999.512
1741603774.795,856.934,826.660,73.242,685.059
1741603774.799,-509.277,-542.480,-25.879,-659.180
1741603774.802,-1000.000,-1000.000,-78.125,-1000.000
1741603774.806,-591.309,-625.000,-39.551,-485.352
1741603774.810,748.535,708.496,91.309,855.469
1741603774.814,999.512,999.512,116.211,981.934
1741603774.818,-22.461,-3.418,-45.898,-240.723
1741603774.820,-1000.000,-1000.000,-108.398,-1000.000
1741603774.824,-619.629,-620.117,-13.184,-503.906
1741603774.828,732.422,731.445,109.375,831.543
1741603774.832,999.512,999.512,128.906,999.512
1741603774.836,167.480,172.363,20.508,-78.125
1741603774.840,-1000.000,-1000.000,-34.180,-1000.000
1741603774.844,-343.750,-286.621,40.039,-323.730
1741603774.847,999.512,999.512,132.324,999.512
1741603774.851,463.379,318.848,37.109,426.758
1741603774.855,-921.387,-979.492,-107.422,-983.887
1741603774.859,-1000.000,-1000.000,-87.891,-1000.000
1741603774.863,-183.594,-210.938,55.176,74.219
1741603774.865,999.512,999.512,169.434,999.512
1741603774.869,188.477,179.688,6.348,171.875
1741603774.873,-1000.000,-1000.000,-67.383,-1000.000
1741603774.877,-1000.000,-1000.000,15.625,-1000.000
1741603774.881,-242.676,-223.145,50.781,36.133
1741603774.885,999.512,999.512,122.070,999.512
1741603774.889,546.875,679.688,92.285,331.543
1741603774.892,-815.918,-675.781,-18.555,-896.484
1741603774.896,-1000.000,-1000.000,-64.453,-1000.000
1741603774.900,-445.801,-397.949,18.555,-374.023
1741603774.904,938.965,932.617,110.352,999.512
1741603774.908,952.148,999.512,69.336,717.773
1741603774.865,999.512,999.512,169.434,999.512
1741603774.869,188.477,179.688,6.348,171.875
1741603774.873,-1000.000,-1000.000,-67.383,-1000.000
1741603774.877,-1000.000,-1000.000,15.625,-1000.000
1741603774.881,-242.676,-223.145,50.781,36.133
1741603774.885,999.512,999.512,122.070,999.512
1741603774.889,546.875,679.688,92.285,331.543
1741603774.892,-815.918,-675.781,-18.555,-896.484
1741603774.896,-1000.000,-1000.000,-64.453,-1000.000
1741603774.900,-445.801,-397.949,18.555,-374.023
1741603774.904,938.965,932.617,110.352,999.512
1741603774.908,952.148,999.512,69.336,717.773
1741603774.910,-391.602,-272.461,-31.250,-615.234
1741603774.914,-1000.000,-1000.000,-92.285,-1000.000
1741603774.918,-508.789,-411.621,-13.672,-447.754
1741603774.922,863.770,895.508,133.301,932.617
1741603774.926,939.453,999.512,63.477,729.980
1741603774.930,-483.398,-398.926,-52.734,-670.898
1741603774.934,-1000.000,-1000.000,-24.414,-1000.000
1741603774.937,-183.594,105.957,44.434,-78.125
1741603774.941,999.512,999.512,36.621,999.512
1741603774.945,187.988,163.574,-98.633,42.480
1741603774.949,-1000.000,-1000.000,-126.465,-1000.000
1741603774.953,-1000.000,-999.512,-57.617,-931.152
1741603774.955,83.496,206.055,-0.977,270.508
1741603774.959,999.512,999.512,15.625,999.512
1741603774.963,180.664,218.750,-53.711,62.500
1741603774.967,-1000.000,-1000.000,-75.195,-1000.000
1741603774.971,-1000.000,-1000.000,-93.750,-924.316
1741603774.975,30.762,66.895,31.250,245.605
1741603774.979,999.512,999.512,173.828,999.512
1741603774.982,296.875,262.207,11.230,253.906
1741603774.986,-953.613,-964.844,-113.770,-970.215
1741603774.990,-1000.000,-1000.000,-108.398,-1000.000
1741603774.994,-206.543,-210.449,-2.441,-151.367
1741603774.998,999.512,999.512,130.859,999.512
1741603774.955,83.496,206.055,-0.977,270.508
1741603774.959,999.512,999.512,15.625,999.512
1741603774.963,180.664,218.750,-53.711,62.500
1741603774.967,-1000.000,-1000.000,-75.195,-1000.000
1741603774.971,-1000.000,-1000.000,-93.750,-924.316
1741603774.975,30.762,66.895,31.250,245.605
1741603774.979,999.512,999.512,173.828,999.512
1741603774.982,296.875,262.207,11.230,253.906
1741603774.986,-953.613,-964.844,-113.770,-970.215
1741603774.990,-1000.000,-1000.000,-108.398,-1000.000
1741603774.994,-206.543,-210.449,-2.441,-151.367
1741603774.998,999.512,999.512,130.859,999.512
1741603775.000,999.512,992.676,65.430,794.434
1741603775.004,-156.738,-178.223,-40.039,-420.898
1741603775.008,-1000.000,-1000.000,-102.051,-1000.000
1741603775.012,-395.508,-400.391,-66.406,-323.730
1741603775.016,876.953,866.699,3.906,931.641
1741603775.020,999.512,999.512,9.277,999.512
1741603775.024,168.457,242.188,-19.043,16.113
1741603775.027,-1000.000,-963.379,-68.359,-1000.000
1741603775.031,-1000.000,-1000.000,-122.559,-868.164
1741603775.035,-52.246,-186.035,-107.910,264.648
1741603775.039,999.512,999.512,-19.043,999.512
1741603775.043,888.672,807.129,1.953,735.352
1741603775.045,-364.746,-514.160,-94.727,-513.184
1741603775.049,-1000.000,-1000.000,-183.105,-1000.000
1741603775.053,-153.809,-154.785,-89.844,-123.047
1741603775.057,967.285,964.844,-13.184,999.512
1741603775.061,999.512,999.512,-43.945,968.750
1741603775.065,208.496,197.266,-83.984,-43.457
1741603775.069,-1000.000,-1000.000,-141.113,-1000.000
1741603775.072,-887.695,-979.492,-119.629,-666.016
1741603775.076,486.328,340.820,-33.203,645.508
1741603775.080,999.512,999.512,7.812,999.512
1741603775.084,999.512,990.234,50.781,928.223
1741603775.088,66.895,68.848,-39.551,-120.605
1741603775.045,-364.746,-514.160,-94.727,-513.184
1741603775.049,-1000.000,-1000.000,-183.105,-1000.000
1741603775.053,-153.809,-154.785,-89.844,-123.047
1741603775.057,967.285,964.844,-13.184,999.512
1741603775.061,999.512,999.512,-43.945,968.750
1741603775.065,208.496,197.266,-83.984,-43.457
1741603775.069,-1000.000,-1000.000,-141.113,-1000.000
1741603775.072,-887.695,-979.492,-119.629,-666.016
1741603775.076,486.328,340.820,-33.203,645.508
1741603775.080,999.512,999.512,7.812,999.512
1741603775.084,999.512,990.234,50.781,928.223
1741603775.088,66.895,68.848,-39.551,-120.605
1741603775.105,-1000.000,-1000.000,-160.645,-1000.000
1741603775.109,-260.742,-318.848,-41.016,-219.727
1741603775.113,989.258,980.469,42.480,999.512
1741603775.117,999.512,999.512,26.855,940.430
1741603775.121,-33.691,-112.305,-95.215,-235.352
1741603775.125,-1000.000,-1000.000,-160.156,-1000.000
1741603775.129,-245.605,-220.703,-19.531,-187.012
1741603775.132,999.512,999.512,26.855,999.512
1741603775.136,410.645,298.340,-109.375,350.098
1741603775.140,-1000.000,-1000.000,-220.215,-1000.000
1741603775.144,-1000.000,-1000.000,-189.453,-840.332
1741603775.148,267.578,255.371,-54.199,453.613
1741603775.150,999.512,999.512,19.531,999.512
1741603775.154,306.152,221.680,-70.801,295.410
1741603775.158,-977.051,-1000.000,-170.898,-1000.000
1741603775.162,-1000.000,-1000.000,-130.371,-929.688
1741603775.166,78.613,79.590,-38.086,313.477
1741603775.170,999.512,999.512,10.742,999.512
1741603775.174,677.734,762.207,-31.738,375.000
1741603775.177,-643.066,-530.273,-110.840,-863.281
1741603775.181,-1000.000,-1000.000,-146.484,-1000.000
1741603775.185,-160.645,-185.547,-23.926,40.039
1741603775.189,999.512,999.512,12.695,999.512
1741603775.193,837.891,821.289,-37.109,605.469
1741603775.150,999.512,999.512,19.531,999.512
1741603775.154,306.152,221.680,-70.801,295.410
1741603775.158,-977.051,-1000.000,-170.898,-1000.000
1741603775.162,-1000.000,-1000.000,-130.371,-929.688
1741603775.166,78.613,79.590,-38.086,313.477
1741603775.170,999.512,999.512,10.742,999.512
1741603775.174,677.734,762.207,-31.738,375.000
1741603775.177,-643.066,-530.273,-110.840,-863.281
1741603775.181,-1000.000,-1000.000,-146.484,-1000.000
1741603775.185,-160.645,-185.547,-23.926,40.039
1741603775.189,999.512,999.512,12.695,999.512
1741603775.193,837.891,821.289,-37.109,605.469
1741603775.195,-481.445,-507.324,-74.707,-677.246
1741603775.199,-1000.000,-1000.000,-154.785,-1000.000
1741603775.203,-200.195,-205.078,-86.426,-166.016
1741603775.207,999.512,999.512,43.945,999.512
1741603775.211,905.762,863.281,0.000,722.656
1741603775.215,-470.703,-587.891,-130.859,-672.363
1741603775.219,-1000.000,-1000.000,-129.883,-1000.000
1741603775.222,145.020,413.574,-0.977,303.223
1741603775.226,999.512,999.512,-11.230,999.512
1741603775.230,155.762,60.059,-101.562,24.414
1741603775.234,-1000.000,-1000.000,-115.723,-1000.000
1741603775.238,-994.629,-992.188,-68.359,-790.527
1741603775.240,255.859,223.633,4.883,514.160
1741603775.244,999.512,999.512,14.648,999.512
1741603775.248,162.109,166.016,-70.801,-102.539
1741603775.252,-1000.000,-1000.000,-97.656,-1000.000
1741603775.256,-959.473,-938.965,-62.988,-763.184
1741603775.260,321.777,344.238,63.965,513.672
1741603775.264,999.512,999.512,118.652,999.512
1741603775.267,120.117,152.832,-22.949,18.555
1741603775.271,-1000.000,-991.699,-151.367,-1000.000
1741603775.275,-1000.000,-1000.000,-188.477,-1000.000
1741603775.279,-240.723,-224.121,-67.871,-168.457
1741603775.283,999.512,999.512,76.172,999.512
1741603775.240,255.859,223.633,4.883,514.160
1741603775.244,999.512,999.512,14.648,999.512
1741603775.248,162.109,166.016,-70.801,-102.539
1741603775.252,-1000.000,-1000.000,-97.656,-1000.000
1741603775.256,-959.473,-938.965,-62.988,-763.184
1741603775.260,321.777,344.238,63.965,513.672
1741603775.264,999.512,999.512,118.652,999.512
1741603775.267,120.117,152.832,-22.949,18.555
1741603775.271,-1000.000,-991.699,-151.367,-1000.000
1741603775.275,-1000.000,-1000.000,-188.477,-1000.000
1741603775.279,-240.723,-224.121,-67.871,-168.457
1741603775.283,999.512,999.512,76.172,999.512
1741603775.285,872.559,941.895,13.184,646.973
1741603775.289,-443.848,-322.754,-101.562,-655.273
1741603775.293,-1000.000,-1000.000,-123.047,-1000.000
1741603775.297,-153.320,-154.785,-4.395,-70.801
1741603775.301,965.332,970.215,37.109,996.582
1741603775.305,999.512,999.512,59.570,999.512
1741603775.309,177.246,167.480,20.020,80.078
1741603775.312,-1000.000,-1000.000,-98.145,-1000.000
1741603775.316,-1000.000,-1000.000,-92.285,-754.395
1741603775.320,17.090,-131.348,-77.637,413.574
1741603775.324,999.512,999.512,6.348,999.512
1741603775.328,522.949,475.098,27.344,437.012
1741603775.330,-814.941,-863.770,-73.242,-858.398
1741603775.334,-1000.000,-1000.000,-136.230,-1000.000
1741603775.338,-171.875,-167.969,-59.570,-104.004
1741603775.342,972.656,962.402,40.039,999.512
1741603775.346,999.512,999.512,40.527,836.426
1741603775.350,66.895,188.965,-57.129,-274.414
1741603775.354,-1000.000,-1000.000,-115.723,-1000.000
1741603775.357,-821.777,-932.617,-63.477,-624.512
1741603775.361,494.629,384.277,-1.953,697.266
1741603775.365,999.512,999.512,23.438,999.512
1741603775.369,160.156,64.941,-14.160,-81.543
1741603775.373,-1000.000,-1000.000,-84.473,-1000.000
1741603775.330,-814.941,-863.770,-73.242,-858.398
1741603775.334,-1000.000,-1000.000,-136.230,-1000.000
1741603775.338,-171.875,-167.969,-59.570,-104.004
1741603775.342,972.656,962.402,40.039,999.512
1741603775.346,999.512,999.512,40.527,836.426
1741603775.350,66.895,188.965,-57.129,-274.414
1741603775.354,-1000.000,-1000.000,-115.723,-1000.000
1741603775.357,-821.777,-932.617,-63.477,-624.512
1741603775.361,494.629,384.277,-1.953,697.266
1741603775.365,999.512,999.512,23.438,999.512
1741603775.369,160.156,64.941,-14.160,-81.543
1741603775.373,-1000.000,-1000.000,-84.473,-1000.000
1741603775.375,-873.047,-913.086,-89.844,-670.898
1741603775.379,455.566,374.512,29.297,626.953
1741603775.383,999.512,999.512,66.895,999.512
1741603775.387,183.594,182.617,-19.531,94.238
1741603775.391,-1000.000,-1000.000,-101.562,-1000.000
1741603775.395,-290.527,-263.672,-13.672,-286.133
1741603775.399,999.512,999.512,137.695,999.512
1741603775.402,554.199,465.820,57.617,495.117
1741603775.406,-835.938,-894.531,-121.582,-865.723
1741603775.410,-1000.000,-1000.000,-137.207,-1000.000
1741603775.414,-190.430,-189.941,-32.227,-162.109
1741603775.418,999.512,997.070,119.141,999.512
1741603775.375,-873.047,-913.086,-89.844,-670.898
1741603775.379,455.566,374.512,29.297,626.953
1741603775.383,999.512,999.512,66.895,999.512
1741603775.387,183.594,182.617,-19.531,94.238
1741603775.391,-1000.000,-1000.000,-101.562,-1000.000
1741603775.395,-290.527,-263.672,-13.672,-286.133
1741603775.399,999.512,999.512,137.695,999.512
1741603775.402,554.199,465.820,57.617,495.117
1741603775.406,-835.938,-894.531,-121.582,-865.723
1741603775.410,-1000.000,-1000.000,-137.207,-1000.000
1741603775.414,-190.430,-189.941,-32.227,-162.109
1741603775.418,999.512,997.070,119.141,999.512
1741603775.422,999.023,999.512,75.684,762.695
1741603775.426,-173.340,-92.285,-25.391,-463.867
1741603775.430,-1000.000,-1000.000,-94.238,-1000.000
1741603775.434,-415.527,-461.426,-36.621,-345.215
1741603775.438,869.141,848.145,94.238,947.266
1741603775.442,999.512,999.512,90.820,983.887
1741603775.446,147.461,157.227,12.695,-139.160
1741603775.449,-1000.000,-1000.000,-87.402,-1000.000
1741603775.453,-1000.000,-1000.000,-113.770,-847.168
1741603775.457,86.914,71.289,-18.066,322.754
1741603775.461,999.512,999.512,59.570,999.512
1741603775.465,590.332,666.016,51.758,461.914
1741603775.422,999.023,999.512,75.684,762.695
1741603775.426,-173.340,-92.285,-25.391,-463.867
1741603775.430,-1000.000,-1000.000,-94.238,-1000.000
1741603775.434,-415.527,-461.426,-36.621,-345.215
1741603775.438,869.141,848.145,94.238,947.266
1741603775.442,999.512,999.512,90.820,983.887
1741603775.446,147.461,157.227,12.695,-139.160
1741603775.449,-1000.000,-1000.000,-87.402,-1000.000
1741603775.453,-1000.000,-1000.000,-113.770,-847.168
1741603775.457,86.914,71.289,-18.066,322.754
1741603775.461,999.512,999.512,59.570,999.512
1741603775.465,590.332,666.016,51.758,461.914
1741603775.480,-736.328,-649.902,-53.711,-807.129
1741603775.484,-1000.000,-1000.000,-135.254,-1000.000
1741603775.488,-192.871,-190.430,-24.414,-179.688
1741603775.492,999.512,999.512,114.258,999.512
1741603775.496,975.098,970.703,77.148,770.996
1741603775.500,-267.578,-260.254,-19.043,-495.605
1741603775.504,-1000.000,-1000.000,-61.523,-1000.000
1741603775.507,-223.633,-223.633,5.859,-214.844
1741603775.511,999.512,999.512,30.273,999.512
1741603775.515,661.621,558.105,-14.160,546.387
1741603775.519,-728.027,-817.383,-43.457,-818.359
1741603775.523,-1000.000,-1000.000,-65.430,-1000.000
1741603775.525,-208.496,-186.035,40.527,-76.172
1741603775.529,999.512,999.512,104.980,999.512
1741603775.533,844.238,910.156,60.547,620.117
1741603775.537,-491.699,-414.062,-7.324,-687.500
1741603775.541,-1000.000,-1000.000,-38.574,-1000.000
1741603775.545,-186.035,-20.508,15.137,-100.586
1741603775.549,999.512,999.512,109.375,999.512
1741603775.552,419.922,369.629,80.566,339.355
1741603775.556,-925.781,-927.246,-83.496,-951.660
1741603775.560,-1000.000,-1000.000,-150.391,-1000.000
1741603775.564,-211.426,-211.426,-41.504,-188.477
1741603775.568,999.512,999.512,107.910,999.512
1741603775.570,927.246,942.871,69.336,703.125
1741603775.574,-320.801,-292.969,-54.688,-562.988
1741603775.578,-1000.000,-1000.000,-121.582,-1000.000
1741603775.582,-411.133,-389.160,-57.129,-342.285
1741603775.586,876.953,890.137,28.809,943.848
1741603775.590,999.512,999.512,45.410,998.047
1741603775.594,79.102,77.637,7.812,-121.582
1741603775.597,-1000.000,-1000.000,-57.617,-1000.000
1741603775.601,-716.309,-707.031,-46.875,-558.105
1741603775.605,637.207,636.719,-5.859,751.953
1741603775.609,999.512,999.512,4.395,999.512
1741603775.613,128.418,131.348,-5.371,36.133
1741603775.570,927.246,942.871,69.336,703.125
1741603775.574,-320.801,-292.969,-54.688,-562.988
1741603775.578,-1000.000,-1000.000,-121.582,-1000.000
1741603775.582,-411.133,-389.160,-57.129,-342.285
1741603775.586,876.953,890.137,28.809,943.848
1741603775.590,999.512,999.512,45.410,998.047
1741603775.594,79.102,77.637,7.812,-121.582
1741603775.597,-1000.000,-1000.000,-57.617,-1000.000
1741603775.601,-716.309,-707.031,-46.875,-558.105
1741603775.605,637.207,636.719,-5.859,751.953
1741603775.609,999.512,999.512,4.395,999.512
1741603775.613,128.418,131.348,-5.371,36.133
1741603775.615,-1000.000,-1000.000,-75.684,-1000.000
1741603775.619,-1000.000,-1000.000,-107.910,-987.305
1741603775.623,-165.527,-169.922,-15.137,62.012
1741603775.627,999.512,999.512,102.539,999.512
1741603775.631,470.215,527.832,23.438,350.098
1741603775.635,-900.391,-885.254,-46.387,-984.375
1741603775.639,-1000.000,-1000.000,-12.695,-1000.000
1741603775.642,-114.746,-10.742,13.184,113.770
1741603775.646,999.512,999.512,30.273,999.512
1741603775.650,179.688,167.969,-63.965,161.133
1741603775.654,-1000.000,-1000.000,-112.793,-1000.000
1741603775.658,-1000.000,-1000.000,-40.527,-837.891
1741603775.615,-1000.000,-1000.000,-75.684,-1000.000
1741603775.619,-1000.000,-1000.000,-107.910,-987.305
1741603775.623,-165.527,-169.922,-15.137,62.012
1741603775.627,999.512,999.512,102.539,999.512
1741603775.631,470.215,527.832,23.438,350.098
1741603775.635,-900.391,-885.254,-46.387,-984.375
1741603775.639,-1000.000,-1000.000,-12.695,-1000.000
1741603775.642,-114.746,-10.742,13.184,113.770
1741603775.646,999.512,999.512,30.273,999.512
1741603775.650,179.688,167.969,-63.965,161.133
1741603775.654,-1000.000,-1000.000,-112.793,-1000.000
1741603775.658,-1000.000,-1000.000,-40.527,-837.891
1741603775.660,-21.484,-105.469,6.348,367.188
1741603775.664,999.512,999.512,32.715,999.512
1741603775.668,169.434,181.641,-20.996,21.973
1741603775.672,-1000.000,-1000.000,-80.078,-1000.000
1741603775.676,-1000.000,-973.145,-66.895,-860.352
1741603775.680,162.109,249.023,-3.906,354.004
1741603775.684,999.512,999.512,51.758,999.512
1741603775.687,367.188,426.758,5.859,278.809
1741603775.691,-906.250,-867.676,-171.875,-950.195
1741603775.695,-1000.000,-1000.000,-231.934,-1000.000
1741603775.699,-218.262,-208.496,-75.684,-138.184
1741603775.703,999.512,999.512,29.785,999.512
1741603775.706,879.883,906.738,-19.043,670.898
1741603775.710,-399.902,-353.027,-56.641,-594.727
1741603775.714,-1000.000,-1000.000,-111.328,-1000.000
1741603775.718,-635.254,-712.402,-125.977,-525.391
1741603775.722,713.379,671.875,-23.926,811.523
1741603775.726,999.512,999.512,4.883,999.512
1741603775.730,-51.270,-247.559,-77.637,-213.379
1741603775.733,-1000.000,-1000.000,-146.484,-1000.000
1741603775.737,-492.676,-507.324,-115.234,-392.578
1741603775.741,837.891,809.570,-37.109,880.859
1741603775.745,999.512,999.512,-4.883,999.512
1741603775.749,149.414,158.691,-48.828,103.516
1741603775.750,-1000.000,-1000.000,-117.676,-1000.000
1741603775.754,-1000.000,-1000.000,-105.469,-925.293
1741603775.758,-9.766,-47.363,4.395,227.539
1741603775.762,999.512,999.512,124.512,999.512
1741603775.766,498.047,461.914,34.180,408.691
1741603775.770,-1000.000,-1000.000,-135.254,-1000.000
1741603775.774,-547.852,-413.574,-18.066,-481.445
1741603775.777,999.512,999.512,111.328,999.512
1741603775.781,779.785,626.953,-34.668,661.621
1741603775.785,-633.789,-754.395,-107.910,-729.492
1741603775.789,-1000.000,-1000.000,-100.586,-1000.000
1741603775.793,-229.980,-232.910,-27.832,-120.117
1741603775.750,-1000.000,-1000.000,-117.676,-1000.000
1741603775.754,-1000.000,-1000.000,-105.469,-925.293
1741603775.758,-9.766,-47.363,4.395,227.539
1741603775.762,999.512,999.512,124.512,999.512
1741603775.766,498.047,461.914,34.180,408.691
1741603775.770,-1000.000,-1000.000,-135.254,-1000.000
1741603775.774,-547.852,-413.574,-18.066,-481.445
1741603775.777,999.512,999.512,111.328,999.512
1741603775.781,779.785,626.953,-34.668,661.621
1741603775.785,-633.789,-754.395,-107.910,-729.492
1741603775.789,-1000.000,-1000.000,-100.586,-1000.000
1741603775.793,-229.980,-232.910,-27.832,-120.117
1741603775.795,999.512,999.512,60.547,999.512
1741603775.799,517.090,367.188,-16.113,472.656
1741603775.803,-880.371,-959.961,-68.848,-910.156
1741603775.807,-1000.000,-1000.000,-67.871,-1000.000
1741603775.811,-128.906,-133.301,9.277,55.664
1741603775.815,985.352,982.910,76.660,999.512
1741603775.819,999.512,999.512,51.270,886.230
1741603775.822,66.406,126.953,-23.438,-187.500
1741603775.826,-1000.000,-1000.000,-135.254,-1000.000
1741603775.830,-745.117,-884.766,-106.445,-549.805
1741603775.834,582.520,407.715,-1.953,717.285
1741603775.838,999.512,999.512,42.480,999.512
1741603775.795,999.512,999.512,60.547,999.512
1741603775.799,517.090,367.188,-16.113,472.656
1741603775.803,-880.371,-959.961,-68.848,-910.156
1741603775.807,-1000.000,-1000.000,-67.871,-1000.000
1741603775.811,-128.906,-133.301,9.277,55.664
1741603775.815,985.352,982.910,76.660,999.512
1741603775.819,999.512,999.512,51.270,886.230
1741603775.822,66.406,126.953,-23.438,-187.500
1741603775.826,-1000.000,-1000.000,-135.254,-1000.000
1741603775.830,-745.117,-884.766,-106.445,-549.805
1741603775.834,582.520,407.715,-1.953,717.285
1741603775.838,999.512,999.512,42.480,999.512
1741603775.855,264.648,245.117,-24.902,228.027
1741603775.859,-1000.000,-1000.000,-123.047,-1000.000
1741603775.863,-881.836,-900.391,-95.215,-679.199
1741603775.867,457.520,420.410,16.602,643.555
1741603775.871,999.512,999.512,17.578,999.512
1741603775.875,676.758,670.410,-30.273,524.414
1741603775.879,-596.191,-601.562,-63.477,-716.309
1741603775.882,-1000.000,-1000.000,-127.930,-1000.000
1741603775.886,-264.160,-293.945,-88.379,-206.543
1741603775.890,919.922,906.738,-23.438,959.473
1741603775.894,999.512,999.512,-31.738,999.512
1741603775.898,177.246,190.918,-31.250,92.285
1741603775.855,264.648,245.117,-24.902,228.027
1741603775.859,-1000.000,-1000.000,-123.047,-1000.000
1741603775.863,-881.836,-900.391,-95.215,-679.199
1741603775.867,457.520,420.410,16.602,643.555
1741603775.871,999.512,999.512,17.578,999.512
1741603775.875,676.758,670.410,-30.273,524.414
1741603775.879,-596.191,-601.562,-63.477,-716.309
1741603775.882,-1000.000,-1000.000,-127.930,-1000.000
1741603775.886,-264.160,-293.945,-88.379,-206.543
1741603775.890,919.922,906.738,-23.438,959.473
1741603775.894,999.512,999.512,-31.738,999.512
1741603775.898,177.246,190.918,-31.250,92.285
1741603775.900,-1000.000,-1000.000,-107.422,-1000.000
1741603775.904,-1000.000,-1000.000,-142.578,-949.219
1741603775.908,-52.246,-88.867,-46.875,184.570
1741603775.912,999.512,999.512,44.922,999.512
1741603775.916,748.535,849.121,-10.254,557.129
1741603775.920,-704.102,-623.047,-112.305,-867.188
1741603775.924,-1000.000,-946.777,-104.004,-862.793
1741603775.927,370.605,538.086,28.320,532.715
1741603775.931,999.512,999.512,66.895,999.512
1741603775.935,189.941,188.965,-41.504,187.500
1741603775.939,-1000.000,-1000.000,-151.367,-1000.000
1741603775.943,-382.324,-310.547,-23.926,-352.051
1741603775.900,-1000.000,-1000.000,-107.422,-1000.000
1741603775.904,-1000.000,-1000.000,-142.578,-949.219
1741603775.908,-52.246,-88.867,-46.875,184.570
1741603775.912,999.512,999.512,44.922,999.512
1741603775.916,748.535,849.121,-10.254,557.129
1741603775.920,-704.102,-623.047,-112.305,-867.188
1741603775.924,-1000.000,-946.777,-104.004,-862.793
1741603775.927,370.605,538.086,28.320,532.715
1741603775.931,999.512,999.512,66.895,999.512
1741603775.935,189.941,188.965,-41.504,187.500
1741603775.939,-1000.000,-1000.000,-151.367,-1000.000
1741603775.943,-382.324,-310.547,-23.926,-352.051
1741603775.945,999.512,999.512,49.805,999.512
1741603775.949,715.332,532.715,-68.359,635.254
1741603775.953,-687.012,-841.309,-104.980,-762.695
1741603775.957,-1000.000,-1000.000,-96.191,-1000.000
1741603775.961,-166.504,-159.180,-52.734,-19.531
1741603775.965,984.863,983.887,58.594,999.512
1741603775.969,999.512,999.512,19.043,873.047
1741603775.972,-1.465,41.016,-102.539,-255.371
1741603775.976,-1000.000,-1000.000,-182.129,-1000.000
1741603775.980,-457.031,-634.277,-125.977,-325.684
1741603775.984,840.332,694.824,-14.648,894.043
1741603775.988,999.512,999.512,19.531,999.512
1741603775.945,999.512,999.512,49.805,999.512
1741603775.949,715.332,532.715,-68.359,635.254
1741603775.953,-687.012,-841.309,-104.980,-762.695
1741603775.957,-1000.000,-1000.000,-96.191,-1000.000
1741603775.961,-166.504,-159.180,-52.734,-19.531
1741603775.965,984.863,983.887,58.594,999.512
1741603775.969,999.512,999.512,19.043,873.047
1741603775.972,-1.465,41.016,-102.539,-255.371
1741603775.976,-1000.000,-1000.000,-182.129,-1000.000
1741603775.980,-457.031,-634.277,-125.977,-325.684
1741603775.984,840.332,694.824,-14.648,894.043
1741603775.988,999.512,999.512,19.531,999.512
1741603776.020,475.098,451.172,-18.555,378.906
1741603776.024,-833.008,-822.266,-20.508,-879.883
1741603776.028,-1000.000,-1000.000,-30.762,-1000.000
1741603776.032,-207.031,-270.508,-41.016,-162.598
1741603776.036,944.824,922.852,30.762,984.375
1741603776.040,999.512,999.512,98.633,999.512
1741603776.044,184.570,173.828,18.066,27.344
1741603776.047,-1000.000,-1000.000,-126.465,-1000.000
1741603776.051,-1000.000,-1000.000,-61.523,-786.621
1741603776.055,229.980,151.367,8.789,527.344
1741603776.059,999.512,999.512,29.297,996.582
1741603776.063,872.559,861.328,67.871,865.723
1741603776.020,475.098,451.172,-18.555,378.906
1741603776.024,-833.008,-822.266,-20.508,-879.883
1741603776.028,-1000.000,-1000.000,-30.762,-1000.000
1741603776.032,-207.031,-270.508,-41.016,-162.598
1741603776.036,944.824,922.852,30.762,984.375
1741603776.040,999.512,999.512,98.633,999.512
